Stunde im Jahr [h]	Variante 10.1 Raumlufttemperatur [C]	Variante 10.1 Heizleistung [W]	Variante 10.1 K端hlleistung [W]	Variante 10.2 Raumlufttemperatur [C]	Variante 10.2 Heizleistung [W]	Variante 10.2 K端hlleistung [W]	Variante 10.2 R端cklauftemperatur [C]	Variante 10.2 Innentemperatur.Dach [C]	Variante 10.2 Innentemperatur.Boden [C]	Variante 10.2 Innentemperatur.Wand.Nord [C]	Variante 10.2 Innentemperatur.Wand.Ost [C]	Variante 10.2 Innentemperatur.Wand.S端d [C]	Variante 10.2 Innentemperatur.Wand.West [C]
737	20.0002	0	0	20	0.00117598	0	20	20	20	20	20	20	20
738	20.0002	0	0	20	0.00116414	0	20	20	20	20	20	20	20
739	20.0002	0	0	20	0.00115241	0	20	20	20	20	20	20	20
740	20.0002	0	0	20	0.00114081	0	20	20	20	20	20	20	20
741	20.0002	0	0	20	0.00112932	0	20	20	20	20	20	20	20
742	20.0002	0	0	20	0.00111795	0	20	20	20	20	20	20	20
743	20.0002	0	0	20.0001	0.00320246	0	20.0019	20	20	20	20	20	20
744	20.0002	0	0	20.0257	1.27642	0	20.1661	20.0004	20.021	20.0004	20.0004	20.0004	20.0004
745	20.0002	0	0	20.1115	8.78513	0	20.4466	20.0044	20.1532	20.0044	20.0044	20.0044	20.0044
746	20	0	0	20.2307	21.2913	0	20.7775	20.0146	20.382	20.0146	20.0146	20.0146	20.0146
1694	16.2716	500	0	25.1449	566.259	0	33.2694	20.789	30.8075	20.789	20.789	20.789	20.789
1695	16.2708	500	0	25.1449	566.259	0	33.2694	20.789	30.8075	20.789	20.789	20.789	20.789
1696	16.27	500	0	25.1449	566.259	0	33.2694	20.789	30.8075	20.789	20.789	20.789	20.789
1697	16.2692	500	0	25.1449	566.259	0	33.2694	20.789	30.8075	20.789	20.789	20.789	20.789
1698	16.2684	500	0	25.1449	566.259	0	33.2694	20.789	30.8075	20.789	20.789	20.789	20.789
1699	16.2676	500	0	25.1449	566.259	0	33.2694	20.789	30.8075	20.789	20.789	20.789	20.789
1700	16.2668	500	0	25.1449	566.259	0	33.2694	20.789	30.8075	20.789	20.789	20.789	20.789
1701	16.266	500	0	25.1449	566.259	0	33.2694	20.789	30.8075	20.789	20.789	20.789	20.789
1702	16.2652	500	0	25.1449	566.259	0	33.2694	20.789	30.8075	20.789	20.789	20.789	20.789
1703	16.2645	500	0	25.1449	566.259	0	33.2694	20.789	30.8075	20.789	20.789	20.789	20.789
1704	12.8246	0	0	25.1449	566.259	0	33.2694	20.789	30.8075	20.789	20.789	20.789	20.789
1705	12.623	0	0	25.1449	566.259	0	33.2694	20.789	30.8075	20.789	20.789	20.789	20.789
1706	12.4932	0	0	25.1449	566.259	0	33.2694	20.789	30.8075	20.789	20.789	20.789	20.789
1707	12.3879	0	0	25.1449	566.259	0	33.2694	20.789	30.8075	20.789	20.789	20.789	20.789
1708	12.2958	0	0	25.1449	566.259	0	33.2694	20.789	30.8075	20.789	20.789	20.789	20.789
1709	12.2117	0	0	25.1449	566.259	0	33.2694	20.789	30.8075	20.789	20.789	20.789	20.789
1710	12.1324	0	0	25.1449	566.259	0	33.2694	20.789	30.8075	20.789	20.789	20.789	20.789
1711	12.0558	0	0	25.1449	566.259	0	33.2694	20.789	30.8075	20.789	20.789	20.789	20.789
1712	11.9811	0	0	25.1449	566.259	0	33.2694	20.789	30.8075	20.789	20.789	20.789	20.789
1713	11.9076	0	0	25.1449	566.259	0	33.2694	20.789	30.8075	20.789	20.789	20.789	20.789
1714	11.8348	0	0	25.1449	566.259	0	33.2694	20.789	30.8075	20.789	20.789	20.789	20.789
1715	11.7625	0	0	25.1449	566.259	0	33.2694	20.789	30.8075	20.789	20.789	20.789	20.789
1716	11.6907	0	0	25.1449	566.259	0	33.2694	20.789	30.8075	20.789	20.789	20.789	20.789
1717	11.6192	0	0	25.1449	566.259	0	33.2694	20.789	30.8075	20.789	20.789	20.789	20.789
1718	11.548	0	0	25.1449	566.259	0	33.2694	20.789	30.8075	20.789	20.789	20.789	20.789
1719	11.4771	0	0	25.1449	566.259	0	33.2694	20.789	30.8075	20.789	20.789	20.789	20.789
1720	11.4064	0	0	25.1449	566.259	0	33.2694	20.789	30.8075	20.789	20.789	20.789	20.789
1721	11.336	0	0	25.1449	566.259	0	33.2694	20.789	30.8075	20.789	20.789	20.789	20.789
1722	11.2659	0	0	25.1449	566.259	0	33.2694	20.789	30.8075	20.789	20.789	20.789	20.789
1723	11.1959	0	0	25.1449	566.259	0	33.2694	20.789	30.8075	20.789	20.789	20.789	20.789
1724	11.1262	0	0	25.1449	566.259	0	33.2694	20.789	30.8075	20.789	20.789	20.789	20.789
1725	11.0567	0	0	25.1449	566.259	0	33.2694	20.789	30.8075	20.789	20.789	20.789	20.789
1726	10.9875	0	0	25.1449	566.259	0	33.2694	20.789	30.8075	20.789	20.789	20.789	20.789
1727	10.9185	0	0	25.1449	566.259	0	33.2694	20.789	30.8075	20.789	20.789	20.789	20.789
1728	10.8497	0	0	25.1449	566.259	0	33.2694	20.789	30.8075	20.789	20.789	20.789	20.789
1729	10.7811	0	0	25.1449	566.259	0	33.2694	20.789	30.8075	20.789	20.789	20.789	20.789
1730	10.7128	0	0	25.1449	566.259	0	33.2694	20.789	30.8075	20.789	20.789	20.789	20.789
1731	10.6447	0	0	25.1449	566.259	0	33.2694	20.789	30.8075	20.789	20.789	20.789	20.789
1732	10.5768	0	0	25.1449	566.259	0	33.2694	20.789	30.8075	20.789	20.789	20.789	20.789
1733	10.5091	0	0	25.1449	566.259	0	33.2694	20.789	30.8075	20.789	20.789	20.789	20.789
1734	10.4417	0	0	25.1449	566.259	0	33.2694	20.789	30.8075	20.789	20.789	20.789	20.789
1735	10.3744	0	0	25.1449	566.259	0	33.2694	20.789	30.8075	20.789	20.789	20.789	20.789
1736	10.3074	0	0	25.1449	566.259	0	33.2694	20.789	30.8075	20.789	20.789	20.789	20.789
1737	10.2407	0	0	25.1449	566.259	0	33.2694	20.789	30.8075	20.789	20.789	20.789	20.789
1738	10.1741	0	0	25.1449	566.259	0	33.2694	20.789	30.8075	20.789	20.789	20.789	20.789
1739	10.1078	0	0	25.1449	566.259	0	33.2694	20.789	30.8075	20.789	20.789	20.789	20.789
1740	10.0416	0	0	25.1449	566.259	0	33.2694	20.789	30.8075	20.789	20.789	20.789	20.789
2871	9.96166	383.476	0	9.11217	44.7655	0	9.73497	8.7828	9.57757	8.7828	8.7828	8.7828	8.7828
2872	9.96166	383.476	0	9.07697	46.8481	0	9.72989	8.73144	9.56302	8.73144	8.73144	8.73144	8.73144
2873	9.96166	383.476	0	9.04213	48.9097	0	9.72487	8.68059	9.54862	8.68059	8.68059	8.68059	8.68059
2874	9.96166	383.476	0	9.00764	50.9505	0	9.7199	8.63025	9.53436	8.63025	8.63025	8.63025	8.63025
2875	9.96166	383.476	0	8.97349	52.9708	0	9.71498	8.58042	9.52024	8.58042	8.58042	8.58042	8.58042
2876	9.96166	383.476	0	8.93969	54.9708	0	9.71011	8.53108	9.50627	8.53108	8.53108	8.53108	8.53108
2877	9.96166	383.476	0	8.90623	56.9506	0	9.70528	8.48225	9.49244	8.48225	8.48225	8.48225	8.48225
2878	9.96166	383.476	0	8.87311	58.9105	0	9.70051	8.43391	9.47874	8.43391	8.43391	8.43391	8.43391
2879	9.96166	383.476	0	8.84032	60.8506	0	9.69578	8.38605	9.46519	8.38605	8.38605	8.38605	8.38605
2880	9.96166	383.476	0	8.80785	62.7712	0	9.6911	8.33868	9.45177	8.33868	8.33868	8.33868	8.33868
2881	9.96166	383.476	0	8.77572	64.6725	0	9.68647	8.29178	9.43849	8.29178	8.29178	8.29178	8.29178
3578	29.7583	500	0	14.3241	380.359	0	24.0395	10.1991	16.6905	10.1991	10.1991	10.1991	10.1991
3579	29.7789	500	0	15.9672	630.825	0	26.5626	10.5198	21.5528	10.5198	10.5198	10.5198	10.5198
3580	29.7995	500	0	16.847	741.466	0	28.0141	10.8141	23.8639	10.8141	10.8141	10.8141	10.8141
3581	29.82	500	0	17.3977	795.471	0	28.9805	11.065	25.0959	11.065	11.065	11.065	11.065
3582	29.8404	500	0	17.7932	825.74	0	29.6905	11.2839	25.8624	11.2839	11.2839	11.2839	11.2839
3583	29.8607	500	0	18.1062	844.748	0	30.2427	11.481	26.4022	11.481	11.481	11.481	11.481
3584	29.881	500	0	18.3681	857.636	0	30.684	11.6638	26.817	11.6638	11.6638	11.6638	11.6638
3585	29.9012	500	0	18.5951	866.467	0	31.0422	11.8366	27.1488	11.8366	11.8366	11.8366	11.8366
3586	29.9214	500	0	18.7965	872.393	0	31.3351	12.0026	27.4216	12.0026	12.0026	12.0026	12.0026
3587	29.9414	500	0	18.9777	876.1	0	31.5757	12.1634	27.6496	12.1634	12.1634	12.1634	12.1634
3588	29.946	500	0	19.1431	878.025	0	31.7742	12.3204	27.8418	12.3204	12.3204	12.3204	12.3204
3589	29.9505	495.454	0	19.2955	878.532	0	31.9383	12.4742	28.0056	12.4742	12.4742	12.4742	12.4742
3590	29.9507	492.828	0	19.4368	877.769	0	32.073	12.6358	28.1545	12.6358	12.6358	12.6358	12.6358
3591	29.951	490.294	0	19.5699	876.181	0	32.1865	12.7778	28.2691	12.7778	12.7778	12.7778	12.7778
3592	29.9512	487.837	0	19.696	873.917	0	32.282	12.9208	28.3726	12.9208	12.9208	12.9208	12.9208
3593	29.9515	485.446	0	19.8161	871.042	0	32.3623	13.0651	28.4665	13.0651	13.0651	13.0651	13.0651
3594	29.9517	483.115	0	19.9309	867.684	0	32.4301	13.2079	28.5503	13.2079	13.2079	13.2079	13.2079
3595	29.9519	480.841	0	20.0415	863.942	0	32.4878	13.3491	28.6256	13.3491	13.3491	13.3491	13.3491
3596	29.9521	478.62	0	20.1483	859.899	0	32.5372	13.4886	28.6939	13.4886	13.4886	13.4886	13.4886
4360	29.9652	348.016	0	29.7193	306.712	0	34.1367	27.3484	32.7727	27.3484	27.3484	27.3484	27.3484
4361	29.9657	342.839	0	29.7488	305.333	0	34.1475	27.3877	32.7874	27.3877	27.3877	27.3877	27.3877
4362	29.9663	337.344	0	29.7802	303.843	0	34.1587	27.4297	32.8029	27.4297	27.4297	27.4297	27.4297
4363	29.9669	331.537	0	29.8135	302.244	0	34.1701	27.4745	32.8193	27.4745	27.4745	27.4745	27.4745
4364	29.9675	325.425	0	29.8487	300.536	0	34.1819	27.522	32.8364	27.522	27.522	27.522	27.522
4365	29.9681	319.016	0	29.8857	298.719	0	34.194	27.5722	32.8544	27.5722	27.5722	27.5722	27.5722
4366	29.9688	312.316	0	29.9246	296.796	0	34.2064	27.6251	32.8731	27.6251	27.6251	27.6251	27.6251
4367	29.9695	305.332	0	29.9653	294.766	0	34.219	27.6807	32.8926	27.6807	27.6807	27.6807	27.6807
4368	29.9702	298.07	0	30.0078	292.63	0	34.2319	27.7388	32.9128	27.7388	27.7388	27.7388	27.7388
4369	29.9709	290.537	0	30.0521	290.389	0	34.2451	27.7996	32.9338	27.7996	27.7996	27.7996	27.7996
4370	29.9717	282.738	0	30.0981	288.045	0	34.2586	27.863	32.9556	27.863	27.863	27.863	27.863
4371	29.9725	274.68	0	30.1459	285.599	0	34.2723	27.9288	32.978	27.9288	27.9288	27.9288	27.9288
4372	29.9734	266.37	0	30.1955	283.05	0	34.2863	27.9972	33.0012	27.9972	27.9972	27.9972	27.9972
4373	29.9742	257.811	0	30.2467	280.403	0	34.3005	28.068	33.0251	28.068	28.068	28.068	28.068
4374	29.9751	249.011	0	30.2996	277.658	0	34.315	28.1413	33.0496	28.1413	28.1413	28.1413	28.1413
4375	29.976	239.98	0	30.3542	274.81	0	34.3295	28.2171	33.0749	28.2171	28.2171	28.2171	28.2171
4376	29.9769	230.776	0	30.41	271.866	0	34.3436	28.2951	33.1007	28.2951	28.2951	28.2951	28.2951
4377	29.9779	221.519	0	30.4667	268.846	0	34.357	28.3746	33.1268	28.3746	28.3746	28.3746	28.3746
4378	29.9788	212.315	0	30.5234	265.766	0	34.3694	28.4551	33.1527	28.4551	28.4551	28.4551	28.4551
4379	29.9797	203.228	0	30.5799	262.654	0	34.3811	28.5357	33.1782	28.5357	28.5357	28.5357	28.5357
4380	29.9806	194.296	0	30.6359	259.527	0	34.392	28.6159	33.2032	28.6159	28.6159	28.6159	28.6159
4381	29.9814	185.539	0	30.6914	256.397	0	34.4024	28.6958	33.2277	28.6958	28.6958	28.6958	28.6958
4382	29.9823	176.964	0	30.7463	253.274	0	34.4122	28.7749	33.2517	28.7749	28.7749	28.7749	28.7749
4383	29.9831	168.576	0	30.8006	250.163	0	34.4216	28.8534	33.2752	28.8534	28.8534	28.8534	28.8534
4384	29.984	160.373	0	30.8543	247.068	0	34.4306	28.9312	33.2982	28.9312	28.9312	28.9312	28.9312
4385	29.9848	152.355	0	30.9074	243.993	0	34.4393	29.0082	33.3209	29.0082	29.0082	29.0082	29.0082
4386	29.9855	144.517	0	30.9599	240.94	0	34.4478	29.0844	33.3431	29.0844	29.0844	29.0844	29.0844
4387	29.9863	136.857	0	31.0119	237.91	0	34.4559	29.1599	33.3651	29.1599	29.1599	29.1599	29.1599
4388	29.9871	129.372	0	31.0633	234.905	0	34.4639	29.2346	33.3867	29.2346	29.2346	29.2346	29.2346
4389	29.9878	122.056	0	31.1141	231.925	0	34.4717	29.3086	33.408	29.3086	29.3086	29.3086	29.3086
4390	29.9885	114.907	0	31.1644	228.972	0	34.4793	29.3819	33.429	29.3819	29.3819	29.3819	29.3819
4391	29.9892	107.921	0	31.2141	226.045	0	34.4868	29.4544	33.4498	29.4544	29.4544	29.4544	29.4544
4392	29.9899	101.094	0	31.2634	223.145	0	34.4942	29.5261	33.4703	29.5261	29.5261	29.5261	29.5261
4393	29.9906	94.4218	0	31.3121	220.273	0	34.5014	29.5972	33.4905	29.5972	29.5972	29.5972	29.5972
4394	29.9912	87.9022	0	31.3604	217.428	0	34.5085	29.6675	33.5106	29.6675	29.6675	29.6675	29.6675
4395	29.9918	81.531	0	31.4081	214.61	0	34.5155	29.7371	33.5304	29.7371	29.7371	29.7371	29.7371
4396	29.9925	75.305	0	31.4553	211.82	0	34.5225	29.806	33.5499	29.806	29.806	29.806	29.806
4397	29.9931	69.2209	0	31.5021	209.056	0	34.5293	29.8743	33.5693	29.8743	29.8743	29.8743	29.8743
4398	29.9937	63.2754	0	31.5484	206.32	0	34.5361	29.9418	33.5885	29.9418	29.9418	29.9418	29.9418
4399	29.9943	57.4653	0	31.5942	203.611	0	34.5427	30.0086	33.6074	30.0086	30.0086	30.0086	30.0086
4400	29.9948	51.7876	0	31.6395	200.928	0	34.5493	30.0748	33.6262	30.0748	30.0748	30.0748	30.0748
4401	29.9954	46.2392	0	31.6844	198.272	0	34.5558	30.1403	33.6447	30.1403	30.1403	30.1403	30.1403
4402	29.9959	40.8173	0	31.7289	195.643	0	34.5623	30.2052	33.6631	30.2052	30.2052	30.2052	30.2052
4403	29.9964	35.5189	0	31.7728	193.04	0	34.5686	30.2694	33.6813	30.2694	30.2694	30.2694	30.2694
4404	29.997	30.3412	0	31.8164	190.463	0	34.5749	30.3329	33.6993	30.3329	30.3329	30.3329	30.3329
4405	29.9975	25.2815	0	31.8595	187.911	0	34.5812	30.3958	33.7171	30.3958	30.3958	30.3958	30.3958
4406	29.998	20.3371	0	31.9021	185.386	0	34.5873	30.4581	33.7347	30.4581	30.4581	30.4581	30.4581
4407	29.9984	15.5053	0	31.9444	182.885	0	34.5934	30.5198	33.7522	30.5198	30.5198	30.5198	30.5198
4408	29.9989	10.7836	0	31.9862	180.41	0	34.5995	30.5808	33.7694	30.5808	30.5808	30.5808	30.5808
4409	29.9994	6.16943	0	32.0276	177.959	0	34.6055	30.6412	33.7865	30.6412	30.6412	30.6412	30.6412
4410	29.9998	1.65908	0	32.0686	175.533	0	34.6114	30.701	33.8034	30.701	30.701	30.701	30.701
4411	30.0149	0	0	32.1091	173.132	0	34.6172	30.7602	33.8202	30.7602	30.7602	30.7602	30.7602
4412	30.0477	0	0	32.1493	170.754	0	34.623	30.8189	33.8368	30.8189	30.8189	30.8189	30.8189
4413	30.0799	0	0	32.189	168.402	0	34.6288	30.8768	33.8532	30.8768	30.8768	30.8768	30.8768
4414	30.112	0	0	32.2283	166.073	0	34.6345	30.9342	33.8694	30.9342	30.9342	30.9342	30.9342
4415	30.1443	0	0	32.2673	163.767	0	34.6401	30.9911	33.8855	30.9911	30.9911	30.9911	30.9911
4416	30.1765	0	0	32.3058	161.484	0	34.6456	31.0474	33.9014	31.0474	31.0474	31.0474	31.0474
4417	30.2087	0	0	32.344	159.223	0	34.6512	31.1031	33.9172	31.1031	31.1031	31.1031	31.1031
4418	30.2409	0	0	32.3818	156.986	0	34.6566	31.1583	33.9328	31.1583	31.1583	31.1583	31.1583
4419	30.2729	0	0	32.4192	154.771	0	34.662	31.2129	33.9482	31.2129	31.2129	31.2129	31.2129
4420	30.3049	0	0	32.4562	152.578	0	34.6673	31.2669	33.9635	31.2669	31.2669	31.2669	31.2669
4421	30.3368	0	0	32.4929	150.408	0	34.6726	31.3204	33.9786	31.3204	31.3204	31.3204	31.3204
4422	30.3685	0	0	32.5292	148.259	0	34.6779	31.3734	33.9936	31.3734	31.3734	31.3734	31.3734
4423	30.4002	0	0	32.5651	146.132	0	34.683	31.4258	34.0084	31.4258	31.4258	31.4258	31.4258
4424	30.4318	0	0	32.6006	144.027	0	34.6882	31.4777	34.0231	31.4777	31.4777	31.4777	31.4777
4425	30.4632	0	0	32.6358	141.942	0	34.6932	31.5291	34.0376	31.5291	31.5291	31.5291	31.5291
4426	30.4946	0	0	32.6707	139.879	0	34.6983	31.58	34.052	31.58	31.58	31.58	31.58
4427	30.5259	0	0	32.7052	137.836	0	34.7032	31.6303	34.0663	31.6303	31.6303	31.6303	31.6303
4428	30.557	0	0	32.7393	135.814	0	34.7082	31.6802	34.0804	31.6802	31.6802	31.6802	31.6802
4429	30.5881	0	0	32.7731	133.813	0	34.7131	31.7295	34.0943	31.7295	31.7295	31.7295	31.7295
4430	30.619	0	0	32.8066	131.831	0	34.7179	31.7783	34.1081	31.7783	31.7783	31.7783	31.7783
4431	30.6499	0	0	32.8397	129.869	0	34.7227	31.8267	34.1218	31.8267	31.8267	31.8267	31.8267
4432	30.6806	0	0	32.8725	127.928	0	34.7274	31.8746	34.1354	31.8746	31.8746	31.8746	31.8746
4433	30.7113	0	0	32.9049	126.005	0	34.7321	31.9219	34.1488	31.9219	31.9219	31.9219	31.9219
4434	30.7418	0	0	32.9371	124.102	0	34.7367	31.9689	34.162	31.9689	31.9689	31.9689	31.9689
4435	30.7723	0	0	32.9689	122.219	0	34.7413	32.0153	34.1752	32.0153	32.0153	32.0153	32.0153
4436	30.8026	0	0	33.0004	120.354	0	34.7458	32.0613	34.1882	32.0613	32.0613	32.0613	32.0613
4437	30.8329	0	0	33.0315	118.508	0	34.7503	32.1068	34.201	32.1068	32.1068	32.1068	32.1068
4438	30.863	0	0	33.0624	116.681	0	34.7548	32.1518	34.2138	32.1518	32.1518	32.1518	32.1518
4439	30.893	0	0	33.0929	114.872	0	34.7592	32.1964	34.2264	32.1964	32.1964	32.1964	32.1964
4440	30.923	0	0	33.1232	113.081	0	34.7636	32.2405	34.2389	32.2405	32.2405	32.2405	32.2405
4441	30.9529	0	0	33.1531	111.308	0	34.7679	32.2842	34.2512	32.2842	32.2842	32.2842	32.2842
4442	30.9826	0	0	33.1827	109.553	0	34.7722	32.3275	34.2634	32.3275	32.3275	32.3275	32.3275
4443	31.0037	0	4.12154	33.2121	107.795	0	34.7764	32.3708	34.2757	32.3708	32.3708	32.3708	32.3708
4444	31.0038	0	6.21983	33.241	105.671	0	34.7806	32.4232	34.2905	32.4232	32.4232	32.4232	32.4232
4445	31.0056	0	10.0093	33.2697	103.977	0	34.7847	32.465	34.3023	32.465	32.465	32.465	32.465
4446	31.007	0	13.8849	33.2981	102.3	0	34.7888	32.5063	34.314	32.5063	32.5063	32.5063	32.5063
4447	31.0081	0	17.6836	33.3262	100.641	0	34.7928	32.5472	34.3256	32.5472	32.5472	32.5472	32.5472
4448	31.0089	0	21.4032	33.354	98.9972	0	34.7969	32.5877	34.337	32.5877	32.5877	32.5877	32.5877
4449	31.0094	0	24.9408	33.3815	97.3705	0	34.8008	32.6278	34.3484	32.6278	32.6278	32.6278	32.6278
4450	31.01	0	29.2365	33.4088	95.7601	0	34.8048	32.6675	34.3596	32.6675	32.6675	32.6675	32.6675
4451	31.01	0	32.1897	33.4358	94.1659	0	34.8087	32.7068	34.3707	32.7068	32.7068	32.7068	32.7068
4452	31.01	0	35.7228	33.4625	92.5876	0	34.8125	32.7457	34.3817	32.7457	32.7457	32.7457	32.7457
4453	31.01	0	39.0873	33.489	91.0253	0	34.8163	32.7842	34.3926	32.7842	32.7842	32.7842	32.7842
4454	31.0097	0	42.041	33.5151	89.4786	0	34.8201	32.8224	34.4034	32.8224	32.8224	32.8224	32.8224
4455	31.0097	0	45.935	33.5411	87.9475	0	34.8238	32.8601	34.4141	32.8601	32.8601	32.8601	32.8601
4456	31.0093	0	49.0558	33.5667	86.4318	0	34.8275	32.8975	34.4246	32.8975	32.8975	32.8975	32.8975
4457	31.009	0	52.1263	33.5921	84.9313	0	34.8312	32.9344	34.4351	32.9344	32.9344	32.9344	32.9344
4458	31.0086	0	54.9966	33.6173	83.4458	0	34.8348	32.9711	34.4455	32.9711	32.9711	32.9711	32.9711
4459	31.0084	0	59.0642	33.6422	81.9753	0	34.8384	33.0073	34.4557	33.0073	33.0073	33.0073	33.0073
4460	31.0079	0	61.1028	33.6668	80.5196	0	34.842	33.0432	34.4659	33.0432	33.0432	33.0432	33.0432
4461	31.0075	0	64.0469	33.6912	79.0785	0	34.8455	33.0787	34.4759	33.0787	33.0787	33.0787	33.0787
4462	31.0071	0	66.7461	33.7154	77.6518	0	34.849	33.1139	34.4858	33.1139	33.1139	33.1139	33.1139
4463	31.0066	0	66.0418	33.7393	76.2395	0	34.8524	33.1487	34.4957	33.1487	33.1487	33.1487	33.1487
4464	31.0068	0	68.1126	33.7629	74.8414	0	34.8558	33.1832	34.5055	33.1832	33.1832	33.1832	33.1832
4465	31.007	0	70.3505	33.7864	73.4574	0	34.8592	33.2173	34.5151	33.2173	33.2173	33.2173	33.2173
4466	31.0073	0	72.6776	33.8096	72.0872	0	34.8626	33.2511	34.5247	33.2511	33.2511	33.2511	33.2511
4467	31.0075	0	74.9525	33.8325	70.7308	0	34.8659	33.2845	34.5341	33.2845	33.2845	33.2845	33.2845
4468	31.0077	0	77.1759	33.8552	69.3881	0	34.8692	33.3176	34.5435	33.3176	33.3176	33.3176	33.3176
4469	31.0079	0	79.349	33.8777	68.0588	0	34.8724	33.3504	34.5527	33.3504	33.3504	33.3504	33.3504
4470	31.0082	0	81.4727	33.9	66.7429	0	34.8756	33.3828	34.5619	33.3828	33.3828	33.3828	33.3828
4471	31.0084	0	83.548	33.9221	65.4402	0	34.8788	33.4149	34.571	33.4149	33.4149	33.4149	33.4149
4472	31.0086	0	85.5762	33.9439	64.1506	0	34.882	33.4467	34.58	33.4467	33.4467	33.4467	33.4467
4473	31.0088	0	87.5581	33.9655	62.8739	0	34.8851	33.4782	34.5889	33.4782	33.4782	33.4782	33.4782
4474	31.0089	0	89.4949	33.9869	61.6101	0	34.8882	33.5093	34.5977	33.5093	33.5093	33.5093	33.5093
4475	31.0091	0	91.3876	34.0081	60.359	0	34.8912	33.5402	34.6064	33.5402	33.5402	33.5402	33.5402
4476	31.0093	0	93.2371	34.0291	59.1204	0	34.8942	33.5707	34.615	33.5707	33.5707	33.5707	33.5707
4477	31.0095	0	95.0446	34.0498	57.8943	0	34.8972	33.6009	34.6236	33.6009	33.6009	33.6009	33.6009
4478	31.0097	0	96.8108	34.0704	56.6805	0	34.9002	33.6308	34.632	33.6308	33.6308	33.6308	33.6308
4479	31.0099	0	98.5368	34.0907	55.4789	0	34.9031	33.6605	34.6404	33.6605	33.6605	33.6605	33.6605
4480	31.01	0	100.223	34.1108	54.2894	0	34.906	33.6898	34.6487	33.6898	33.6898	33.6898	33.6898
4481	31.0102	0	101.872	34.1308	53.1118	0	34.9089	33.7188	34.6569	33.7188	33.7188	33.7188	33.7188
4482	31.0103	0	103.482	34.1505	51.946	0	34.9118	33.7475	34.6651	33.7475	33.7475	33.7475	33.7475
4483	31.0105	0	105.056	34.1701	50.792	0	34.9146	33.776	34.6731	33.776	33.776	33.776	33.776
4484	31.0107	0	106.594	34.1894	49.6496	0	34.9174	33.8042	34.6811	33.8042	33.8042	33.8042	33.8042
4485	31.0108	0	108.098	34.2085	48.5186	0	34.9201	33.832	34.689	33.832	33.832	33.832	33.832
4486	31.011	0	109.566	34.2275	47.399	0	34.9229	33.8596	34.6968	33.8596	33.8596	33.8596	33.8596
4487	31.0111	0	111.002	34.2463	46.2907	0	34.9256	33.887	34.7045	33.887	33.887	33.887	33.887
4488	31.0113	0	112.404	34.2648	45.1935	0	34.9283	33.914	34.7121	33.914	33.914	33.914	33.914
4489	31.0114	0	113.775	34.2832	44.1073	0	34.9309	33.9408	34.7197	33.9408	33.9408	33.9408	33.9408
4490	31.0115	0	115.115	34.3014	43.032	0	34.9335	33.9673	34.7272	33.9673	33.9673	33.9673	33.9673
4491	31.0116	0	116.424	34.3194	41.9675	0	34.9361	33.9935	34.7346	33.9935	33.9935	33.9935	33.9935
4492	31.0118	0	117.703	34.3373	40.9137	0	34.9387	34.0195	34.742	34.0195	34.0195	34.0195	34.0195
4493	31.0119	0	118.953	34.3549	39.8706	0	34.9413	34.0452	34.7493	34.0452	34.0452	34.0452	34.0452
4494	31.012	0	120.174	34.3724	38.8378	0	34.9438	34.0707	34.7565	34.0707	34.0707	34.0707	34.0707
4495	31.0121	0	121.368	34.3897	37.8155	0	34.9463	34.0959	34.7636	34.0959	34.0959	34.0959	34.0959
4496	31.0123	0	122.534	34.4069	36.8034	0	34.9487	34.1208	34.7706	34.1208	34.1208	34.1208	34.1208
4497	31.0124	0	123.674	34.4238	35.8015	0	34.9512	34.1455	34.7776	34.1455	34.1455	34.1455	34.1455
4498	31.0125	0	124.788	34.4406	34.8097	0	34.9536	34.17	34.7845	34.17	34.17	34.17	34.17
4499	31.0126	0	125.877	34.4572	33.8278	0	34.956	34.1942	34.7914	34.1942	34.1942	34.1942	34.1942
4500	31.0127	0	126.94	34.4737	32.8558	0	34.9584	34.2181	34.7981	34.2181	34.2181	34.2181	34.2181
4501	31.0128	0	127.98	34.49	31.8936	0	34.9607	34.2418	34.8049	34.2418	34.2418	34.2418	34.2418
4502	31.0129	0	128.996	34.5061	30.9411	0	34.9631	34.2653	34.8115	34.2653	34.2653	34.2653	34.2653
4503	31.013	0	129.988	34.5221	29.998	0	34.9654	34.2886	34.8181	34.2886	34.2886	34.2886	34.2886
4504	31.0131	0	130.958	34.5379	29.0645	0	34.9676	34.3116	34.8246	34.3116	34.3116	34.3116	34.3116
4505	31.0132	0	131.906	34.5535	28.1404	0	34.9699	34.3344	34.831	34.3344	34.3344	34.3344	34.3344
4506	31.0133	0	132.833	34.569	27.2255	0	34.9721	34.3569	34.8374	34.3569	34.3569	34.3569	34.3569
4507	31.0134	0	133.738	34.5843	26.3199	0	34.9744	34.3792	34.8437	34.3792	34.3792	34.3792	34.3792
4508	31.0135	0	134.623	34.5995	25.4233	0	34.9765	34.4014	34.85	34.4014	34.4014	34.4014	34.4014
4509	31.0135	0	135.487	34.6145	24.5357	0	34.9787	34.4232	34.8561	34.4232	34.4232	34.4232	34.4232
4510	31.0136	0	136.332	34.6294	23.6571	0	34.9808	34.4449	34.8623	34.4449	34.4449	34.4449	34.4449
4511	31.0137	0	137.157	34.6441	22.7873	0	34.983	34.4663	34.8683	34.4663	34.4663	34.4663	34.4663
4512	31.0138	0	137.964	34.6587	21.9262	0	34.9851	34.4875	34.8743	34.4875	34.4875	34.4875	34.4875
4513	31.0139	0	138.752	34.6731	21.0738	0	34.9872	34.5086	34.8803	34.5086	34.5086	34.5086	34.5086
4514	31.014	0	139.523	34.6874	20.2299	0	34.9892	34.5294	34.8862	34.5294	34.5294	34.5294	34.5294
4515	31.014	0	140.276	34.7016	19.3945	0	34.9913	34.55	34.892	34.55	34.55	34.55	34.55
4516	31.0141	0	141.011	34.7156	18.5676	0	34.9933	34.5703	34.8978	34.5703	34.5703	34.5703	34.5703
4517	31.0142	0	141.73	34.7294	17.7489	0	34.9953	34.5905	34.9035	34.5905	34.5905	34.5905	34.5905
4518	31.0143	0	142.433	34.7431	16.9384	0	34.9973	34.6105	34.9091	34.6105	34.6105	34.6105	34.6105
4519	31.0143	0	143.119	34.7567	16.1361	0	34.9992	34.6303	34.9147	34.6303	34.6303	34.6303	34.6303
4520	31.0144	0	143.79	34.7702	15.3419	0	35.0012	34.6499	34.9203	34.6499	34.6499	34.6499	34.6499
4521	31.0145	0	144.446	34.7835	14.5556	0	35.0031	34.6692	34.9257	34.6692	34.6692	34.6692	34.6692
4522	31.0145	0	145.087	34.7967	13.7772	0	35.005	34.6884	34.9312	34.6884	34.6884	34.6884	34.6884
4523	31.0146	0	145.713	34.8097	13.0067	0	35.0069	34.7074	34.9365	34.7074	34.7074	34.7074	34.7074
4524	31.0146	0	146.324	34.8226	12.2439	0	35.0087	34.7262	34.9419	34.7262	34.7262	34.7262	34.7262
4525	31.0147	0	146.922	34.8354	11.4887	0	35.0106	34.7448	34.9471	34.7448	34.7448	34.7448	34.7448
4526	31.0148	0	147.506	34.8481	10.7411	0	35.0124	34.7633	34.9523	34.7633	34.7633	34.7633	34.7633
4527	31.0148	0	148.077	34.8606	10.0011	0	35.0142	34.7815	34.9575	34.7815	34.7815	34.7815	34.7815
4528	31.0149	0	148.635	34.873	9.26849	0	35.016	34.7996	34.9626	34.7996	34.7996	34.7996	34.7996
4529	31.0149	0	149.18	34.8853	8.54323	0	35.0178	34.8175	34.9676	34.8175	34.8175	34.8175	34.8175
4530	31.015	0	149.713	34.8974	7.82527	0	35.0195	34.8351	34.9727	34.8351	34.8351	34.8351	34.8351
4531	31.015	0	150.234	34.9095	7.11451	0	35.0213	34.8527	34.9776	34.8527	34.8527	34.8527	34.8527
4532	31.0151	0	150.743	34.9214	6.4109	0	35.023	34.87	34.9825	34.87	34.87	34.87	34.87
4533	31.0151	0	151.24	34.9332	5.71436	0	35.0247	34.8872	34.9874	34.8872	34.8872	34.8872	34.8872
4534	31.0152	0	151.726	34.9448	5.02482	0	35.0264	34.9042	34.9922	34.9042	34.9042	34.9042	34.9042
4535	31.0152	0	152.201	34.9564	4.3422	0	35.028	34.921	34.9969	34.921	34.921	34.921	34.921
4536	31.0153	0	152.665	34.9678	3.66644	0	35.0297	34.9377	35.0016	34.9377	34.9377	34.9377	34.9377
4537	31.0153	0	153.118	34.9792	2.99747	0	35.0313	34.9541	35.0063	34.9541	34.9541	34.9541	34.9541
4538	31.0154	0	153.561	34.9904	2.33523	0	35.0329	34.9705	35.0109	34.9705	34.9705	34.9705	34.9705
4539	31.0154	0	153.994	35.0015	1.67963	0	35.0345	34.9866	35.0155	34.9866	34.9866	34.9866	34.9866
4540	31.0155	0	154.417	35.0125	1.03062	0	35.0361	35.0026	35.02	35.0026	35.0026	35.0026	35.0026
4541	31.0155	0	154.831	35.0233	0.388138	0	35.0377	35.0185	35.0245	35.0185	35.0185	35.0185	35.0185
4542	31.0155	0	155.234	35.0341	0	0.247894	35.0392	35.0341	35.0289	35.0341	35.0341	35.0341	35.0341
4543	31.0156	0	155.629	35.0448	0	0.877536	35.0408	35.0497	35.0333	35.0497	35.0497	35.0497	35.0497
4544	31.0156	0	156.015	35.0553	0	1.50085	35.0423	35.065	35.0377	35.065	35.065	35.065	35.065
4545	31.0156	0	156.392	35.0658	0	2.1179	35.0438	35.0802	35.042	35.0802	35.0802	35.0802	35.0802
4546	31.0157	0	156.761	35.0761	0	2.72876	35.0453	35.0953	35.0462	35.0953	35.0953	35.0953	35.0953
4547	31.0157	0	157.121	35.0863	0	3.33347	35.0468	35.1102	35.0504	35.1102	35.1102	35.1102	35.1102
4548	31.0158	0	157.473	35.0965	0	3.93212	35.0482	35.125	35.0546	35.125	35.125	35.125	35.125
4549	31.0158	0	157.816	35.1065	0	4.52474	35.0497	35.1396	35.0588	35.1396	35.1396	35.1396	35.1396
4550	31.0158	0	158.153	35.1164	0	5.11141	35.0511	35.154	35.0628	35.154	35.154	35.154	35.154
4551	31.0159	0	158.481	35.1263	0	5.69219	35.0525	35.1684	35.0669	35.1684	35.1684	35.1684	35.1684
4552	31.0159	0	158.802	35.136	0	6.26713	35.0539	35.1825	35.0709	35.1825	35.1825	35.1825	35.1825
4756	31.0173	0	172.439	35.9728	0	55.697	35.1746	36.401	35.4155	36.401	36.401	36.401	36.401
4757	31.0173	0	172.442	35.974	0	55.7695	35.1748	36.4028	35.416	36.4028	36.4028	36.4028	36.4028
4758	31.0173	0	172.445	35.9752	0	55.8413	35.175	36.4046	35.4165	36.4046	36.4046	36.4046	36.4046
4759	31.0173	0	172.447	35.9764	0	55.9124	35.1752	36.4063	35.417	36.4063	36.4063	36.4063	36.4063
4760	31.0173	0	172.45	35.9776	0	55.9828	35.1754	36.4081	35.4175	36.4081	36.4081	36.4081	36.4081
4761	31.0173	0	172.453	35.9788	0	56.0525	35.1755	36.4098	35.418	36.4098	36.4098	36.4098	36.4098
4762	31.0173	0	172.455	35.98	0	56.1215	35.1757	36.4115	35.4185	36.4115	36.4115	36.4115	36.4115
4763	31.0173	0	172.458	35.9811	0	56.1897	35.1759	36.4132	35.4189	36.4132	36.4132	36.4132	36.4132
4764	31.0173	0	172.46	35.9823	0	56.2573	35.176	36.4148	35.4194	36.4148	36.4148	36.4148	36.4148
4765	31.0173	0	172.463	35.9834	0	56.3243	35.1762	36.4165	35.4199	36.4165	36.4165	36.4165	36.4165
4766	31.0173	0	172.465	35.9845	0	56.3905	35.1763	36.4181	35.4203	36.4181	36.4181	36.4181	36.4181
4767	31.0173	0	172.467	35.9856	0	56.4561	35.1765	36.4197	35.4208	36.4197	36.4197	36.4197	36.4197
4768	31.0173	0	172.469	35.9867	0	56.521	35.1767	36.4213	35.4212	36.4213	36.4213	36.4213	36.4213
4769	31.0173	0	172.471	35.9878	0	56.5853	35.1768	36.4229	35.4217	36.4229	36.4229	36.4229	36.4229
4770	31.0173	0	172.474	35.9889	0	56.6489	35.177	36.4245	35.4221	36.4245	36.4245	36.4245	36.4245
4771	31.0173	0	172.476	35.99	0	56.7119	35.1771	36.426	35.4226	36.426	36.426	36.426	36.426
4772	31.0173	0	172.478	35.991	0	56.7742	35.1773	36.4275	35.423	36.4275	36.4275	36.4275	36.4275
4773	31.0173	0	172.48	35.9921	0	56.8359	35.1774	36.4291	35.4234	36.4291	36.4291	36.4291	36.4291
4774	31.0173	0	172.482	35.9931	0	56.8971	35.1776	36.4306	35.4239	36.4306	36.4306	36.4306	36.4306
4775	31.0173	0	172.483	35.9941	0	56.9575	35.1777	36.4321	35.4243	36.4321	36.4321	36.4321	36.4321
4776	31.0173	0	172.485	35.9951	0	57.0174	35.1779	36.4335	35.4247	36.4335	36.4335	36.4335	36.4335
4777	31.0173	0	172.487	35.9961	0	57.0767	35.178	36.435	35.4251	36.435	36.435	36.435	36.435
4778	31.0173	0	172.489	35.9971	0	57.1354	35.1782	36.4365	35.4255	36.4365	36.4365	36.4365	36.4365
4779	31.0173	0	172.49	35.9981	0	57.1935	35.1783	36.4379	35.4259	36.4379	36.4379	36.4379	36.4379
4780	31.0173	0	172.492	35.9991	0	57.251	35.1784	36.4393	35.4263	36.4393	36.4393	36.4393	36.4393
4781	31.0173	0	172.494	36.0001	0	57.3079	35.1786	36.4407	35.4267	36.4407	36.4407	36.4407	36.4407
4782	31.0173	0	172.495	36.001	0	57.3643	35.1787	36.4421	35.4271	36.4421	36.4421	36.4421	36.4421
4783	31.0173	0	172.497	36.0019	0	57.4201	35.1789	36.4435	35.4275	36.4435	36.4435	36.4435	36.4435
4784	31.0173	0	172.499	36.0029	0	57.4753	35.179	36.4448	35.4279	36.4448	36.4448	36.4448	36.4448
4785	31.0173	0	172.5	36.0038	0	57.53	35.1791	36.4462	35.4283	36.4462	36.4462	36.4462	36.4462
4786	31.0173	0	172.501	36.0047	0	57.5841	35.1793	36.4475	35.4286	36.4475	36.4475	36.4475	36.4475
4787	31.0173	0	172.503	36.0056	0	57.6377	35.1794	36.4488	35.429	36.4488	36.4488	36.4488	36.4488
4788	31.0173	0	172.504	36.0065	0	57.6908	35.1795	36.4502	35.4294	36.4502	36.4502	36.4502	36.4502
4789	31.0173	0	172.506	36.0074	0	57.7433	35.1797	36.4514	35.4298	36.4514	36.4514	36.4514	36.4514
4790	31.0173	0	172.507	36.0083	0	57.7953	35.1798	36.4527	35.4301	36.4527	36.4527	36.4527	36.4527
4791	31.0173	0	172.508	36.0092	0	57.8467	35.1799	36.454	35.4305	36.454	36.454	36.454	36.454
4792	31.0173	0	172.51	36.01	0	57.8977	35.18	36.4552	35.4308	36.4552	36.4552	36.4552	36.4552
4793	31.0173	0	172.511	36.0109	0	57.9481	35.1801	36.4565	35.4312	36.4565	36.4565	36.4565	36.4565
4794	31.0173	0	172.512	36.0117	0	57.998	35.1803	36.4577	35.4315	36.4577	36.4577	36.4577	36.4577
4795	31.0173	0	172.513	36.0126	0	58.0475	35.1804	36.4589	35.4319	36.4589	36.4589	36.4589	36.4589
4796	31.0173	0	172.514	36.0134	0	58.0964	35.1805	36.4601	35.4322	36.4601	36.4601	36.4601	36.4601
4797	31.0173	0	172.515	36.0142	0	58.1448	35.1806	36.4613	35.4326	36.4613	36.4613	36.4613	36.4613
4798	31.0173	0	172.517	36.015	0	58.1928	35.1808	36.4625	35.4329	36.4625	36.4625	36.4625	36.4625
4799	31.0173	0	172.518	36.0158	0	58.2403	35.1809	36.4637	35.4332	36.4637	36.4637	36.4637	36.4637
4800	31.0173	0	172.519	36.0166	0	58.2873	35.181	36.4648	35.4335	36.4648	36.4648	36.4648	36.4648
4801	31.0173	0	172.52	36.0174	0	58.3338	35.1811	36.466	35.4339	36.466	36.466	36.466	36.466
4802	31.0173	0	172.521	36.0182	0	58.3798	35.1812	36.4671	35.4342	36.4671	36.4671	36.4671	36.4671
4803	31.0173	0	172.522	36.019	0	58.4254	35.1813	36.4683	35.4345	36.4683	36.4683	36.4683	36.4683
4804	31.0173	0	172.523	36.0197	0	58.4706	35.1814	36.4694	35.4348	36.4694	36.4694	36.4694	36.4694
4805	31.0173	0	172.524	36.0205	0	58.5152	35.1815	36.4705	35.4351	36.4705	36.4705	36.4705	36.4705
4806	31.0173	0	172.524	36.0212	0	58.5595	35.1816	36.4716	35.4355	36.4716	36.4716	36.4716	36.4716
4807	31.0173	0	172.525	36.022	0	58.6033	35.1818	36.4726	35.4358	36.4726	36.4726	36.4726	36.4726
4808	31.0173	0	172.526	36.0227	0	58.6466	35.1819	36.4737	35.4361	36.4737	36.4737	36.4737	36.4737
4809	31.0173	0	172.527	36.0234	0	58.6895	35.182	36.4748	35.4364	36.4748	36.4748	36.4748	36.4748
4810	31.0173	0	172.528	36.0241	0	58.732	35.1821	36.4758	35.4367	36.4758	36.4758	36.4758	36.4758
4811	31.0173	0	172.529	36.0249	0	58.7741	35.1822	36.4768	35.437	36.4768	36.4768	36.4768	36.4768
4812	31.0173	0	172.53	36.0256	0	58.8157	35.1823	36.4779	35.4372	36.4779	36.4779	36.4779	36.4779
4813	31.0173	0	172.53	36.0263	0	58.8569	35.1824	36.4789	35.4375	36.4789	36.4789	36.4789	36.4789
4814	31.0173	0	172.531	36.027	0	58.8977	35.1825	36.4799	35.4378	36.4799	36.4799	36.4799	36.4799
4815	31.0173	0	172.532	36.0276	0	58.9381	35.1826	36.4809	35.4381	36.4809	36.4809	36.4809	36.4809
4816	31.0173	0	172.533	36.0283	0	58.9781	35.1827	36.4819	35.4384	36.4819	36.4819	36.4819	36.4819
4817	31.0173	0	172.533	36.029	0	59.0176	35.1828	36.4829	35.4387	36.4829	36.4829	36.4829	36.4829
4818	31.0173	0	172.534	36.0296	0	59.0568	35.1829	36.4838	35.4389	36.4838	36.4838	36.4838	36.4838
4819	31.0173	0	172.535	36.0303	0	59.0956	35.1829	36.4848	35.4392	36.4848	36.4848	36.4848	36.4848
4820	31.0173	0	172.535	36.031	0	59.134	35.1831	36.4857	35.4395	36.4857	36.4857	36.4857	36.4857
4821	31.0173	0	172.536	36.0316	0	59.172	35.1831	36.4867	35.4397	36.4867	36.4867	36.4867	36.4867
4822	31.0173	0	172.537	36.0322	0	59.2097	35.1832	36.4876	35.44	36.4876	36.4876	36.4876	36.4876
4823	31.0173	0	172.537	36.0329	0	59.2469	35.1833	36.4885	35.4402	36.4885	36.4885	36.4885	36.4885
4824	31.0173	0	172.538	36.0335	0	59.2838	35.1834	36.4894	35.4405	36.4894	36.4894	36.4894	36.4894
4825	31.0173	0	172.538	36.0341	0	59.3203	35.1835	36.4903	35.4408	36.4903	36.4903	36.4903	36.4903
4826	31.0173	0	172.539	36.0347	0	59.3565	35.1836	36.4912	35.441	36.4912	36.4912	36.4912	36.4912
4827	31.0173	0	172.54	36.0353	0	59.3922	35.1837	36.4921	35.4413	36.4921	36.4921	36.4921	36.4921
4828	31.0173	0	172.54	36.0359	0	59.4276	35.1838	36.493	35.4415	36.493	36.493	36.493	36.493
4829	31.0173	0	172.541	36.0365	0	59.4627	35.1838	36.4938	35.4417	36.4938	36.4938	36.4938	36.4938
4830	31.0173	0	172.541	36.0371	0	59.4974	35.1839	36.4947	35.442	36.4947	36.4947	36.4947	36.4947
4831	31.0173	0	172.542	36.0377	0	59.5318	35.184	36.4955	35.4422	36.4955	36.4955	36.4955	36.4955
4832	31.0173	0	172.542	36.0383	0	59.5658	35.1841	36.4964	35.4425	36.4964	36.4964	36.4964	36.4964
4833	31.0173	0	172.543	36.0388	0	59.5995	35.1842	36.4972	35.4427	36.4972	36.4972	36.4972	36.4972
4834	31.0173	0	172.543	36.0394	0	59.6328	35.1843	36.498	35.4429	36.498	36.498	36.498	36.498
4835	31.0173	0	172.544	36.04	0	59.6658	35.1843	36.4988	35.4432	36.4988	36.4988	36.4988	36.4988
4836	31.0173	0	172.544	36.0405	0	59.6985	35.1844	36.4996	35.4434	36.4996	36.4996	36.4996	36.4996
4837	31.0173	0	172.545	36.0411	0	59.7308	35.1845	36.5004	35.4436	36.5004	36.5004	36.5004	36.5004
4838	31.0173	0	172.545	36.0416	0	59.7629	35.1846	36.5012	35.4438	36.5012	36.5012	36.5012	36.5012
4839	31.0173	0	172.546	36.0421	0	59.7946	35.1847	36.502	35.4441	36.502	36.502	36.502	36.502
4840	31.0173	0	172.546	36.0427	0	59.8259	35.1847	36.5028	35.4443	36.5028	36.5028	36.5028	36.5028
4841	31.0173	0	172.546	36.0432	0	59.857	35.1848	36.5035	35.4445	36.5035	36.5035	36.5035	36.5035
4842	31.0173	0	172.547	36.0437	0	59.8877	35.1849	36.5043	35.4447	36.5043	36.5043	36.5043	36.5043
4843	31.0173	0	172.547	36.0442	0	59.9182	35.185	36.5051	35.4449	36.5051	36.5051	36.5051	36.5051
4844	31.0173	0	172.548	36.0447	0	59.9483	35.185	36.5058	35.4451	36.5058	36.5058	36.5058	36.5058
4845	31.0173	0	172.548	36.0453	0	59.9782	35.1851	36.5065	35.4453	36.5065	36.5065	36.5065	36.5065
4846	31.0173	0	172.548	36.0457	0	60.0077	35.1852	36.5073	35.4455	36.5073	36.5073	36.5073	36.5073
4847	31.0173	0	172.549	36.0462	0	60.0369	35.1853	36.508	35.4457	36.508	36.508	36.508	36.508
4848	31.0173	0	172.549	36.0467	0	60.0659	35.1853	36.5087	35.446	36.5087	36.5087	36.5087	36.5087
4849	31.0173	0	172.549	36.0472	0	60.0945	35.1854	36.5094	35.4462	36.5094	36.5094	36.5094	36.5094
4850	31.0173	0	172.55	36.0477	0	60.1229	35.1855	36.5101	35.4464	36.5101	36.5101	36.5101	36.5101
4851	31.0173	0	172.55	36.0482	0	60.151	35.1855	36.5108	35.4466	36.5108	36.5108	36.5108	36.5108
4852	31.0173	0	172.55	36.0487	0	60.1788	35.1856	36.5115	35.4467	36.5115	36.5115	36.5115	36.5115
4853	31.0173	0	172.551	36.0491	0	60.2063	35.1857	36.5122	35.4469	36.5122	36.5122	36.5122	36.5122
4854	31.0173	0	172.551	36.0496	0	60.2335	35.1857	36.5128	35.4471	36.5128	36.5128	36.5128	36.5128
4855	31.0173	0	172.551	36.05	0	60.2605	35.1858	36.5135	35.4473	36.5135	36.5135	36.5135	36.5135
4856	31.0173	0	172.552	36.0505	0	60.2872	35.1859	36.5142	35.4475	36.5142	36.5142	36.5142	36.5142
4857	31.0173	0	172.552	36.0509	0	60.3136	35.1859	36.5148	35.4477	36.5148	36.5148	36.5148	36.5148
4858	31.0173	0	172.552	36.0514	0	60.3398	35.186	36.5155	35.4479	36.5155	36.5155	36.5155	36.5155
4859	31.0173	0	172.552	36.0518	0	60.3657	35.1861	36.5161	35.448	36.5161	36.5161	36.5161	36.5161
4860	31.0173	0	172.553	36.0522	0	60.3913	35.1861	36.5167	35.4482	36.5167	36.5167	36.5167	36.5167
4861	31.0173	0	172.553	36.0527	0	60.4167	35.1862	36.5173	35.4484	36.5173	36.5173	36.5173	36.5173
4862	31.0173	0	172.553	36.0531	0	60.4418	35.1862	36.518	35.4486	36.518	36.518	36.518	36.518
4863	31.0173	0	172.553	36.0535	0	60.4667	35.1863	36.5186	35.4487	36.5186	36.5186	36.5186	36.5186
4864	31.0173	0	172.554	36.0539	0	60.4913	35.1864	36.5192	35.4489	36.5192	36.5192	36.5192	36.5192
4865	31.0173	0	172.554	36.0543	0	60.5157	35.1864	36.5198	35.4491	36.5198	36.5198	36.5198	36.5198
4866	31.0173	0	172.554	36.0548	0	60.5398	35.1865	36.5204	35.4493	36.5204	36.5204	36.5204	36.5204
4867	31.0173	0	172.554	36.0552	0	60.5637	35.1865	36.521	35.4494	36.521	36.521	36.521	36.521
4868	31.0173	0	172.555	36.0556	0	60.5874	35.1866	36.5215	35.4496	36.5215	36.5215	36.5215	36.5215
4869	31.0173	0	172.555	36.056	0	60.6108	35.1867	36.5221	35.4498	36.5221	36.5221	36.5221	36.5221
4870	31.0173	0	172.555	36.0564	0	60.634	35.1867	36.5227	35.4499	36.5227	36.5227	36.5227	36.5227
4871	31.0173	0	172.555	36.0567	0	60.6569	35.1868	36.5233	35.4501	36.5233	36.5233	36.5233	36.5233
4872	31.0173	0	172.555	36.0571	0	60.6796	35.1868	36.5238	35.4502	36.5238	36.5238	36.5238	36.5238
4873	31.0173	0	172.556	36.0575	0	60.7021	35.1869	36.5244	35.4504	36.5244	36.5244	36.5244	36.5244
4874	31.0173	0	172.556	36.0579	0	60.7244	35.1869	36.5249	35.4505	36.5249	36.5249	36.5249	36.5249
4875	31.0173	0	172.556	36.0583	0	60.7464	35.187	36.5255	35.4507	36.5255	36.5255	36.5255	36.5255
4876	31.0173	0	172.556	36.0586	0	60.7682	35.187	36.526	35.4509	36.526	36.526	36.526	36.526
4877	31.0173	0	172.556	36.059	0	60.7898	35.1871	36.5265	35.451	36.5265	36.5265	36.5265	36.5265
4878	31.0173	0	172.556	36.0594	0	60.8112	35.1871	36.5271	35.4511	36.5271	36.5271	36.5271	36.5271
4879	31.0173	0	172.557	36.0597	0	60.8324	35.1872	36.5276	35.4513	36.5276	36.5276	36.5276	36.5276
4880	31.0173	0	172.557	36.0601	0	60.8533	35.1872	36.5281	35.4514	36.5281	36.5281	36.5281	36.5281
4881	31.0173	0	172.557	36.0604	0	60.8741	35.1873	36.5286	35.4516	36.5286	36.5286	36.5286	36.5286
4882	31.0173	0	172.557	36.0608	0	60.8946	35.1874	36.5291	35.4517	36.5291	36.5291	36.5291	36.5291
4883	31.0173	0	172.557	36.0611	0	60.9149	35.1874	36.5296	35.4519	36.5296	36.5296	36.5296	36.5296
4884	31.0173	0	172.558	36.0615	0	60.935	35.1874	36.5301	35.452	36.5301	36.5301	36.5301	36.5301
4885	31.0173	0	172.558	36.0618	0	60.955	35.1875	36.5306	35.4522	36.5306	36.5306	36.5306	36.5306
4886	31.0173	0	172.558	36.0621	0	60.9747	35.1875	36.5311	35.4523	36.5311	36.5311	36.5311	36.5311
4887	31.0173	0	172.558	36.0624	0	60.9942	35.1876	36.5316	35.4524	36.5316	36.5316	36.5316	36.5316
4888	31.0173	0	172.558	36.0628	0	61.0135	35.1876	36.5321	35.4526	36.5321	36.5321	36.5321	36.5321
4889	31.0173	0	172.558	36.0631	0	61.0326	35.1877	36.5325	35.4527	36.5325	36.5325	36.5325	36.5325
4890	31.0173	0	172.558	36.0634	0	61.0516	35.1877	36.533	35.4528	36.533	36.533	36.533	36.533
4891	31.0173	0	172.558	36.0637	0	61.0703	35.1878	36.5335	35.453	36.5335	36.5335	36.5335	36.5335
4892	31.0173	0	172.559	36.0641	0	61.0889	35.1878	36.5339	35.4531	36.5339	36.5339	36.5339	36.5339
4893	31.0173	0	172.559	36.0644	0	61.1073	35.1879	36.5344	35.4532	36.5344	36.5344	36.5344	36.5344
4894	31.0173	0	172.559	36.0647	0	61.1255	35.1879	36.5348	35.4533	36.5348	36.5348	36.5348	36.5348
4895	31.0173	0	172.559	36.065	0	61.1435	35.188	36.5353	35.4535	36.5353	36.5353	36.5353	36.5353
4896	31.0173	0	172.559	36.0653	0	61.1613	35.188	36.5357	35.4536	36.5357	36.5357	36.5357	36.5357
4897	31.0173	0	172.559	36.0656	0	61.1789	35.188	36.5361	35.4537	36.5361	36.5361	36.5361	36.5361
4898	31.0173	0	172.559	36.0659	0	61.1964	35.1881	36.5366	35.4538	36.5366	36.5366	36.5366	36.5366
4899	31.0173	0	172.559	36.0662	0	61.2137	35.1881	36.537	35.454	36.537	36.537	36.537	36.537
4900	31.0173	0	172.56	36.0665	0	61.2308	35.1882	36.5374	35.4541	36.5374	36.5374	36.5374	36.5374
4901	31.0173	0	172.56	36.0667	0	61.2478	35.1882	36.5378	35.4542	36.5378	36.5378	36.5378	36.5378
4902	31.0173	0	172.56	36.067	0	61.2645	35.1882	36.5382	35.4543	36.5382	36.5382	36.5382	36.5382
4903	31.0173	0	172.56	36.0673	0	61.2812	35.1883	36.5386	35.4544	36.5386	36.5386	36.5386	36.5386
4904	31.0173	0	172.56	36.0676	0	61.2976	35.1883	36.5391	35.4545	36.5391	36.5391	36.5391	36.5391
4905	31.0173	0	172.56	36.0679	0	61.3139	35.1884	36.5395	35.4547	36.5395	36.5395	36.5395	36.5395
4906	31.0173	0	172.56	36.0681	0	61.33	35.1884	36.5399	35.4548	36.5399	36.5399	36.5399	36.5399
4907	31.0173	0	172.56	36.0684	0	61.3459	35.1885	36.5403	35.4549	36.5403	36.5403	36.5403	36.5403
4908	31.0173	0	172.56	36.0687	0	61.3617	35.1885	36.5406	35.455	36.5406	36.5406	36.5406	36.5406
4909	31.0173	0	172.56	36.0689	0	61.3774	35.1885	36.541	35.4551	36.541	36.541	36.541	36.541
4910	31.0173	0	172.56	36.0692	0	61.3928	35.1886	36.5414	35.4552	36.5414	36.5414	36.5414	36.5414
4911	31.0173	0	172.56	36.0695	0	61.4082	35.1886	36.5418	35.4553	36.5418	36.5418	36.5418	36.5418
4912	31.0173	0	172.561	36.0697	0	61.4233	35.1886	36.5422	35.4554	36.5422	36.5422	36.5422	36.5422
4913	31.0173	0	172.561	36.07	0	61.4383	35.1887	36.5425	35.4555	36.5425	36.5425	36.5425	36.5425
4914	31.0173	0	172.561	36.0702	0	61.4532	35.1887	36.5429	35.4556	36.5429	36.5429	36.5429	36.5429
4915	31.0173	0	172.561	36.0705	0	61.4679	35.1887	36.5433	35.4557	36.5433	36.5433	36.5433	36.5433
4916	31.0173	0	172.561	36.0707	0	61.4825	35.1888	36.5436	35.4558	36.5436	36.5436	36.5436	36.5436
4917	31.0173	0	172.561	36.071	0	61.4969	35.1888	36.544	35.4559	36.544	36.544	36.544	36.544
4918	31.0173	0	172.561	36.0712	0	61.5112	35.1889	36.5443	35.456	36.5443	36.5443	36.5443	36.5443
4919	31.0173	0	172.561	36.0714	0	61.5253	35.1889	36.5447	35.4561	36.5447	36.5447	36.5447	36.5447
4920	31.0173	0	172.561	36.0717	0	61.5393	35.1889	36.545	35.4562	36.545	36.545	36.545	36.545
4921	31.0173	0	172.561	36.0719	0	61.5532	35.1889	36.5454	35.4563	36.5454	36.5454	36.5454	36.5454
4922	31.0173	0	172.561	36.0721	0	61.5669	35.189	36.5457	35.4564	36.5457	36.5457	36.5457	36.5457
4923	31.0173	0	172.561	36.0724	0	61.5804	35.189	36.546	35.4565	36.546	36.546	36.546	36.546
4924	31.0173	0	172.561	36.0726	0	61.5939	35.1891	36.5464	35.4566	36.5464	36.5464	36.5464	36.5464
4925	31.0173	0	172.561	36.0728	0	61.6072	35.1891	36.5467	35.4567	36.5467	36.5467	36.5467	36.5467
4926	31.0173	0	172.561	36.0731	0	61.6203	35.1891	36.547	35.4568	36.547	36.547	36.547	36.547
4927	31.0173	0	172.562	36.0733	0	61.6334	35.1891	36.5473	35.4569	36.5473	36.5473	36.5473	36.5473
4928	31.0173	0	172.562	36.0735	0	61.6463	35.1892	36.5476	35.457	36.5476	36.5476	36.5476	36.5476
4929	31.0173	0	172.562	36.0737	0	61.6591	35.1892	36.548	35.4571	36.548	36.548	36.548	36.548
4930	31.0173	0	172.562	36.0739	0	61.6717	35.1892	36.5483	35.4571	36.5483	36.5483	36.5483	36.5483
4931	31.0173	0	172.562	36.0741	0	61.6842	35.1893	36.5486	35.4572	36.5486	36.5486	36.5486	36.5486
4932	31.0173	0	172.562	36.0743	0	61.6966	35.1893	36.5489	35.4573	36.5489	36.5489	36.5489	36.5489
4933	31.0173	0	172.562	36.0746	0	61.7089	35.1893	36.5492	35.4574	36.5492	36.5492	36.5492	36.5492
4934	31.0173	0	172.562	36.0748	0	61.721	35.1894	36.5495	35.4575	36.5495	36.5495	36.5495	36.5495
4935	31.0173	0	172.562	36.075	0	61.733	35.1894	36.5498	35.4576	36.5498	36.5498	36.5498	36.5498
4936	31.0173	0	172.562	36.0752	0	61.7449	35.1894	36.5501	35.4577	36.5501	36.5501	36.5501	36.5501
4937	31.0173	0	172.562	36.0754	0	61.7567	35.1895	36.5504	35.4577	36.5504	36.5504	36.5504	36.5504
4938	31.0173	0	172.562	36.0756	0	61.7684	35.1895	36.5507	35.4578	36.5507	36.5507	36.5507	36.5507
4939	31.0173	0	172.562	36.0757	0	61.7799	35.1895	36.551	35.4579	36.551	36.551	36.551	36.551
4940	31.0173	0	172.562	36.0759	0	61.7914	35.1895	36.5512	35.458	36.5512	36.5512	36.5512	36.5512
4941	31.0173	0	172.562	36.0761	0	61.8027	35.1896	36.5515	35.4581	36.5515	36.5515	36.5515	36.5515
4942	31.0173	0	172.562	36.0763	0	61.8139	35.1896	36.5518	35.4581	36.5518	36.5518	36.5518	36.5518
4943	31.0173	0	172.562	36.0765	0	61.825	35.1896	36.5521	35.4582	36.5521	36.5521	36.5521	36.5521
4944	31.0173	0	172.562	36.0767	0	61.8359	35.1896	36.5523	35.4583	36.5523	36.5523	36.5523	36.5523
4945	31.0173	0	172.562	36.0769	0	61.8468	35.1897	36.5526	35.4584	36.5526	36.5526	36.5526	36.5526
4946	31.0173	0	172.562	36.0771	0	61.8576	35.1897	36.5529	35.4584	36.5529	36.5529	36.5529	36.5529
4947	31.0173	0	172.563	36.0772	0	61.8682	35.1897	36.5531	35.4585	36.5531	36.5531	36.5531	36.5531
4948	31.0173	0	172.563	36.0774	0	61.8788	35.1897	36.5534	35.4586	36.5534	36.5534	36.5534	36.5534
4949	31.0173	0	172.563	36.0776	0	61.8892	35.1898	36.5536	35.4587	36.5536	36.5536	36.5536	36.5536
4950	31.0173	0	172.563	36.0778	0	61.8995	35.1898	36.5539	35.4587	36.5539	36.5539	36.5539	36.5539
4951	31.0173	0	172.563	36.078	0	61.9098	35.1898	36.5541	35.4588	36.5541	36.5541	36.5541	36.5541
4952	31.0173	0	172.563	36.0781	0	61.9199	35.1898	36.5544	35.4589	36.5544	36.5544	36.5544	36.5544
4953	31.0173	0	172.563	36.0783	0	61.9299	35.1899	36.5547	35.459	36.5547	36.5547	36.5547	36.5547
4954	31.0173	0	172.563	36.0785	0	61.9398	35.1899	36.5549	35.459	36.5549	36.5549	36.5549	36.5549
4955	31.0173	0	172.563	36.0786	0	61.9497	35.1899	36.5551	35.4591	36.5551	36.5551	36.5551	36.5551
4956	31.0173	0	172.563	36.0788	0	61.9594	35.19	36.5554	35.4592	36.5554	36.5554	36.5554	36.5554
4957	31.0173	0	172.563	36.0789	0	61.969	35.19	36.5556	35.4592	36.5556	36.5556	36.5556	36.5556
4958	31.0173	0	172.563	36.0791	0	61.9786	35.19	36.5558	35.4593	36.5558	36.5558	36.5558	36.5558
4959	31.0173	0	172.563	36.0793	0	61.988	35.19	36.5561	35.4594	36.5561	36.5561	36.5561	36.5561
4960	31.0173	0	172.563	36.0794	0	61.9973	35.19	36.5563	35.4594	36.5563	36.5563	36.5563	36.5563
4961	31.0173	0	172.563	36.0796	0	62.0066	35.1901	36.5565	35.4595	36.5565	36.5565	36.5565	36.5565
4962	31.0173	0	172.563	36.0797	0	62.0157	35.1901	36.5568	35.4596	36.5568	36.5568	36.5568	36.5568
4963	31.0173	0	172.563	36.0799	0	62.0248	35.1901	36.557	35.4596	36.557	36.557	36.557	36.557
4964	31.0173	0	172.563	36.08	0	62.0338	35.1901	36.5572	35.4597	36.5572	36.5572	36.5572	36.5572
4965	31.0173	0	172.563	36.0802	0	62.0427	35.1902	36.5574	35.4597	36.5574	36.5574	36.5574	36.5574
4966	31.0173	0	172.563	36.0804	0	62.0514	35.1902	36.5576	35.4598	36.5576	36.5576	36.5576	36.5576
4967	31.0173	0	172.563	36.0805	0	62.0602	35.1902	36.5579	35.4599	36.5579	36.5579	36.5579	36.5579
4968	31.0173	0	172.563	36.0806	0	62.0688	35.1902	36.5581	35.4599	36.5581	36.5581	36.5581	36.5581
4969	31.0173	0	172.563	36.0808	0	62.0773	35.1902	36.5583	35.46	36.5583	36.5583	36.5583	36.5583
4970	31.0173	0	172.563	36.0809	0	62.0857	35.1902	36.5585	35.46	36.5585	36.5585	36.5585	36.5585
4971	31.0173	0	172.563	36.0811	0	62.0941	35.1903	36.5587	35.4601	36.5587	36.5587	36.5587	36.5587
4972	31.0173	0	172.563	36.0812	0	62.1024	35.1903	36.5589	35.4601	36.5589	36.5589	36.5589	36.5589
4973	31.0173	0	172.563	36.0814	0	62.1106	35.1903	36.5591	35.4602	36.5591	36.5591	36.5591	36.5591
4974	31.0173	0	172.563	36.0815	0	62.1187	35.1903	36.5593	35.4603	36.5593	36.5593	36.5593	36.5593
4975	31.0173	0	172.563	36.0816	0	62.1267	35.1904	36.5595	35.4603	36.5595	36.5595	36.5595	36.5595
4976	31.0173	0	172.563	36.0818	0	62.1346	35.1904	36.5597	35.4604	36.5597	36.5597	36.5597	36.5597
4977	31.0173	0	172.563	36.0819	0	62.1425	35.1904	36.5599	35.4604	36.5599	36.5599	36.5599	36.5599
4978	31.0173	0	172.563	36.082	0	62.1503	35.1904	36.5601	35.4605	36.5601	36.5601	36.5601	36.5601
4979	31.0173	0	172.563	36.0821	0	62.158	35.1904	36.5603	35.4605	36.5603	36.5603	36.5603	36.5603
4980	31.0173	0	172.563	36.0823	0	62.1656	35.1904	36.5605	35.4606	36.5605	36.5605	36.5605	36.5605
4981	31.0173	0	172.563	36.0824	0	62.1732	35.1905	36.5606	35.4606	36.5606	36.5606	36.5606	36.5606
4982	31.0173	0	172.563	36.0825	0	62.1807	35.1905	36.5608	35.4607	36.5608	36.5608	36.5608	36.5608
4983	31.0173	0	172.563	36.0827	0	62.1881	35.1905	36.561	35.4607	36.561	36.561	36.561	36.561
4984	31.0173	0	172.563	36.0828	0	62.1954	35.1905	36.5612	35.4608	36.5612	36.5612	36.5612	36.5612
4985	31.0173	0	172.563	36.0829	0	62.2027	35.1905	36.5614	35.4609	36.5614	36.5614	36.5614	36.5614
4986	31.0173	0	172.563	36.083	0	62.2099	35.1906	36.5615	35.4609	36.5615	36.5615	36.5615	36.5615
4987	31.0173	0	172.563	36.0832	0	62.217	35.1906	36.5617	35.4609	36.5617	36.5617	36.5617	36.5617
4988	31.0173	0	172.563	36.0833	0	62.224	35.1906	36.5619	35.461	36.5619	36.5619	36.5619	36.5619
4989	31.0173	0	172.563	36.0834	0	62.231	35.1906	36.5621	35.4611	36.5621	36.5621	36.5621	36.5621
4990	31.0173	0	172.563	36.0835	0	62.2379	35.1906	36.5622	35.4611	36.5622	36.5622	36.5622	36.5622
4991	31.0173	0	172.564	36.0836	0	62.2447	35.1906	36.5624	35.4611	36.5624	36.5624	36.5624	36.5624
4992	31.0173	0	172.564	36.0837	0	62.2515	35.1907	36.5626	35.4612	36.5626	36.5626	36.5626	36.5626
4993	31.0173	0	172.564	36.0838	0	62.2582	35.1907	36.5627	35.4612	36.5627	36.5627	36.5627	36.5627
4994	31.0173	0	172.564	36.084	0	62.2648	35.1907	36.5629	35.4613	36.5629	36.5629	36.5629	36.5629
4995	31.0173	0	172.564	36.0841	0	62.2713	35.1907	36.5631	35.4613	36.5631	36.5631	36.5631	36.5631
4996	31.0173	0	172.564	36.0842	0	62.2778	35.1907	36.5632	35.4614	36.5632	36.5632	36.5632	36.5632
4997	31.0173	0	172.564	36.0843	0	62.2843	35.1907	36.5634	35.4614	36.5634	36.5634	36.5634	36.5634
4998	31.0173	0	172.564	36.0844	0	62.2906	35.1908	36.5635	35.4615	36.5635	36.5635	36.5635	36.5635
4999	31.0173	0	172.564	36.0845	0	62.2969	35.1908	36.5637	35.4615	36.5637	36.5637	36.5637	36.5637
5000	31.0173	0	172.564	36.0846	0	62.3032	35.1908	36.5639	35.4616	36.5639	36.5639	36.5639	36.5639
5001	31.0173	0	172.564	36.0847	0	62.3093	35.1908	36.564	35.4616	36.564	36.564	36.564	36.564
5002	31.0173	0	172.564	36.0848	0	62.3154	35.1908	36.5641	35.4616	36.5641	36.5641	36.5641	36.5641
5003	31.0173	0	172.564	36.0849	0	62.3215	35.1908	36.5643	35.4617	36.5643	36.5643	36.5643	36.5643
5004	31.0173	0	172.564	36.085	0	62.3275	35.1908	36.5645	35.4617	36.5645	36.5645	36.5645	36.5645
5005	31.0173	0	172.564	36.0851	0	62.3334	35.1909	36.5646	35.4618	36.5646	36.5646	36.5646	36.5646
5006	31.0173	0	172.564	36.0852	0	62.3393	35.1909	36.5647	35.4618	36.5647	36.5647	36.5647	36.5647
5007	31.0173	0	172.564	36.0853	0	62.3451	35.1909	36.5649	35.4618	36.5649	36.5649	36.5649	36.5649
5008	31.0173	0	172.564	36.0854	0	62.3509	35.1909	36.565	35.4619	36.565	36.565	36.565	36.565
5009	31.0173	0	172.564	36.0855	0	62.3565	35.1909	36.5652	35.4619	36.5652	36.5652	36.5652	36.5652
5010	31.0173	0	172.564	36.0856	0	62.3622	35.1909	36.5653	35.462	36.5653	36.5653	36.5653	36.5653
5011	31.0173	0	172.564	36.0857	0	62.3678	35.1909	36.5654	35.462	36.5654	36.5654	36.5654	36.5654
5012	31.0173	0	172.564	36.0858	0	62.3733	35.191	36.5656	35.462	36.5656	36.5656	36.5656	36.5656
5013	31.0173	0	172.564	36.0859	0	62.3788	35.191	36.5657	35.4621	36.5657	36.5657	36.5657	36.5657
5014	31.0173	0	172.564	36.086	0	62.3842	35.191	36.5658	35.4621	36.5658	36.5658	36.5658	36.5658
5015	31.0173	0	172.564	36.0861	0	62.3895	35.191	36.566	35.4622	36.566	36.566	36.566	36.566
5016	31.0173	0	172.564	36.0862	0	62.3948	35.191	36.5661	35.4622	36.5661	36.5661	36.5661	36.5661
5017	31.0173	0	172.564	36.0862	0	62.4001	35.191	36.5662	35.4622	36.5662	36.5662	36.5662	36.5662
5018	31.0173	0	172.564	36.0863	0	62.4053	35.191	36.5664	35.4623	36.5664	36.5664	36.5664	36.5664
5019	31.0173	0	172.564	36.0864	0	62.4104	35.191	36.5665	35.4623	36.5665	36.5665	36.5665	36.5665
5020	31.0173	0	172.564	36.0865	0	62.4156	35.1911	36.5666	35.4623	36.5666	36.5666	36.5666	36.5666
5021	31.0173	0	172.564	36.0866	0	62.4206	35.1911	36.5667	35.4624	36.5667	36.5667	36.5667	36.5667
5022	31.0173	0	172.564	36.0867	0	62.4256	35.1911	36.5669	35.4624	36.5669	36.5669	36.5669	36.5669
5023	31.0173	0	172.564	36.0868	0	62.4305	35.1911	36.567	35.4624	36.567	36.567	36.567	36.567
5024	31.0173	0	172.564	36.0868	0	62.4354	35.1911	36.5671	35.4625	36.5671	36.5671	36.5671	36.5671
5025	31.0173	0	172.564	36.0869	0	62.4403	35.1911	36.5672	35.4625	36.5672	36.5672	36.5672	36.5672
5026	31.0173	0	172.564	36.087	0	62.4451	35.1911	36.5673	35.4625	36.5673	36.5673	36.5673	36.5673
5027	31.0173	0	172.564	36.0871	0	62.4498	35.1911	36.5675	35.4626	36.5675	36.5675	36.5675	36.5675
5028	31.0173	0	172.564	36.0872	0	62.4545	35.1912	36.5676	35.4626	36.5676	36.5676	36.5676	36.5676
5029	31.0173	0	172.564	36.0872	0	62.4592	35.1912	36.5677	35.4626	36.5677	36.5677	36.5677	36.5677
5030	31.0173	0	172.564	36.0873	0	62.4638	35.1912	36.5678	35.4627	36.5678	36.5678	36.5678	36.5678
5031	31.0173	0	172.564	36.0874	0	62.4683	35.1912	36.5679	35.4627	36.5679	36.5679	36.5679	36.5679
5032	31.0173	0	172.564	36.0875	0	62.4729	35.1912	36.568	35.4627	36.568	36.568	36.568	36.568
5033	31.0173	0	172.564	36.0876	0	62.4773	35.1912	36.5681	35.4628	36.5681	36.5681	36.5681	36.5681
5034	31.0173	0	172.564	36.0876	0	62.4817	35.1912	36.5682	35.4628	36.5682	36.5682	36.5682	36.5682
5035	31.0173	0	172.564	36.0877	0	62.4861	35.1912	36.5684	35.4628	36.5684	36.5684	36.5684	36.5684
5036	31.0173	0	172.564	36.0878	0	62.4905	35.1912	36.5685	35.4629	36.5685	36.5685	36.5685	36.5685
5037	31.0173	0	172.564	36.0879	0	62.4948	35.1912	36.5686	35.4629	36.5686	36.5686	36.5686	36.5686
5038	31.0173	0	172.564	36.0879	0	62.499	35.1913	36.5687	35.4629	36.5687	36.5687	36.5687	36.5687
5039	31.0163	0	162.907	36.088	0	62.5032	35.1913	36.5688	35.4629	36.5688	36.5688	36.5688	36.5688
5040	30.111	0	300	36.088	0	62.5074	35.1802	36.5688	35.4629	36.5688	36.5688	36.5688	36.5688
5041	30.0726	0	300	35.1787	0	103.693	29.2127	36.5572	34.7933	36.5572	36.5572	36.5572	36.5572
5042	30.0433	0	300	32.9784	0	335.769	25.0666	36.4238	30.6543	36.4238	36.4238	36.4238	36.4238
5043	30.0185	0	300	31.7953	0	515.627	23.2549	36.1937	27.163	36.1937	36.1937	36.1937	36.1937
5044	29.9964	0	300	31.1622	0	595.628	22.2147	35.9824	25.4935	35.9824	35.9824	35.9824	35.9824
5045	29.9759	0	300	30.7664	0	634.59	21.5218	35.8019	24.6053	35.8019	35.8019	35.8019	35.8019
5046	29.9562	0	300	30.4809	0	656.292	21.011	35.6446	24.0555	35.6446	35.6446	35.6446	35.6446
5047	29.9372	0	300	30.2558	0	670.158	20.6147	35.5028	23.6637	35.5028	35.5028	35.5028	35.5028
5048	29.9185	0	300	30.0675	0	679.473	20.2979	35.3714	23.3646	35.3714	35.3714	35.3714	35.3714
5049	29.9	0	300	29.9039	0	685.85	20.0405	35.2471	23.1255	35.2471	35.2471	35.2471	35.2471
5050	29.8817	0	300	29.759	0	690.16	19.8299	35.1277	22.9285	35.1277	35.1277	35.1277	35.1277
5051	29.8636	0	300	29.6284	0	692.852	19.6568	35.0121	22.7641	35.0121	35.0121	35.0121	35.0121
5052	29.8455	0	300	29.5092	0	694.271	19.514	34.8992	22.6252	34.8992	34.8992	34.8992	34.8992
5053	29.8275	0	300	29.3994	0	694.665	19.3958	34.7886	22.507	34.7886	34.7886	34.7886	34.7886
5054	29.8096	0	300	29.2972	0	694.23	19.2977	34.68	22.4054	34.68	34.68	34.68	34.68
5055	29.7917	0	300	29.2013	0	693.127	19.2159	34.573	22.3175	34.573	34.573	34.573	34.573
5056	29.7739	0	300	29.1106	0	691.486	19.1475	34.4676	22.2407	34.4676	34.4676	34.4676	34.4676
5057	29.7562	0	300	29.0243	0	689.413	19.09	34.3636	22.173	34.3636	34.3636	34.3636	34.3636
5058	29.7385	0	300	28.9416	0	686.996	19.0413	34.2608	22.1127	34.2608	34.2608	34.2608	34.2608
5059	29.7209	0	300	28.8621	0	684.306	18.9999	34.1593	22.0586	34.1593	34.1593	34.1593	34.1593
5060	29.7034	0	300	28.7852	0	681.399	18.9644	34.059	22.0095	34.059	34.059	34.059	34.059
5061	29.6859	0	300	28.7107	0	678.324	18.9338	33.9599	21.9645	33.9599	33.9599	33.9599	33.9599
5062	29.6684	0	300	28.6381	0	675.118	18.9071	33.8618	21.923	33.8618	33.8618	33.8618	33.8618
5063	29.6511	0	300	28.5672	0	671.813	18.8837	33.7648	21.8844	33.7648	33.7648	33.7648	33.7648
5064	29.6337	0	300	28.4979	0	668.434	18.863	33.6689	21.8481	33.6689	33.6689	33.6689	33.6689
5065	29.6165	0	300	28.4299	0	665.002	18.8444	33.5739	21.8138	33.5739	33.5739	33.5739	33.5739
5066	29.5993	0	300	28.3632	0	661.533	18.8276	33.48	21.7811	33.48	33.48	33.48	33.48
5067	29.5821	0	300	28.2976	0	658.041	18.8123	33.3871	21.7499	33.3871	33.3871	33.3871	33.3871
5068	29.565	0	300	28.233	0	654.537	18.7983	33.2951	21.7198	33.2951	33.2951	33.2951	33.2951
5069	29.548	0	300	28.1693	0	651.029	18.7852	33.2041	21.6908	33.2041	33.2041	33.2041	33.2041
5070	29.531	0	300	28.1065	0	647.526	18.773	33.114	21.6626	33.114	33.114	33.114	33.114
5071	29.5141	0	300	28.0446	0	644.032	18.7615	33.0248	21.6352	33.0248	33.0248	33.0248	33.0248
5072	29.4972	0	300	27.9834	0	640.553	18.7506	32.9365	21.6084	32.9365	32.9365	32.9365	32.9365
5073	29.4804	0	300	27.923	0	637.091	18.7402	32.8492	21.5822	32.8492	32.8492	32.8492	32.8492
5074	29.4636	0	300	27.8633	0	633.651	18.7302	32.7627	21.5566	32.7627	32.7627	32.7627	32.7627
5075	29.4469	0	300	27.8043	0	630.234	18.7206	32.6771	21.5314	32.6771	32.6771	32.6771	32.6771
5076	29.4303	0	300	27.7459	0	626.842	18.7112	32.5924	21.5066	32.5924	32.5924	32.5924	32.5924
5077	29.4137	0	300	27.6882	0	623.477	18.7022	32.5085	21.4823	32.5085	32.5085	32.5085	32.5085
5078	29.3971	0	300	27.6311	0	620.139	18.6933	32.4255	21.4582	32.4255	32.4255	32.4255	32.4255
5079	29.3806	0	300	27.5747	0	616.831	18.6847	32.3433	21.4346	32.3433	32.3433	32.3433	32.3433
5080	29.3642	0	300	27.5188	0	613.551	18.6762	32.262	21.4112	32.262	32.262	32.262	32.262
5081	29.3478	0	300	27.4635	0	610.301	18.6679	32.1814	21.3881	32.1814	32.1814	32.1814	32.1814
5082	29.3315	0	300	27.4088	0	607.082	18.6597	32.1017	21.3653	32.1017	32.1017	32.1017	32.1017
5083	29.3152	0	300	27.3547	0	603.892	18.6517	32.0228	21.3428	32.0228	32.0228	32.0228	32.0228
5084	29.299	0	300	27.3011	0	600.733	18.6438	31.9447	21.3205	31.9447	31.9447	31.9447	31.9447
5085	29.2829	0	300	27.2481	0	597.604	18.636	31.8674	21.2985	31.8674	31.8674	31.8674	31.8674
5086	29.2667	0	300	27.1956	0	594.505	18.6283	31.7908	21.2767	31.7908	31.7908	31.7908	31.7908
5087	29.2507	0	300	27.1436	0	591.437	18.6208	31.715	21.2552	31.715	31.715	31.715	31.715
5088	29.2347	0	300	27.0922	0	588.399	18.6133	31.64	21.2339	31.64	31.64	31.64	31.64
5089	29.2187	0	300	27.0413	0	585.391	18.6059	31.5658	21.2128	31.5658	31.5658	31.5658	31.5658
5090	29.2028	0	300	26.9909	0	582.412	18.5985	31.4922	21.1919	31.4922	31.4922	31.4922	31.4922
5091	29.187	0	300	26.9411	0	579.463	18.5913	31.4195	21.1713	31.4195	31.4195	31.4195	31.4195
5092	29.1712	0	300	26.8917	0	576.544	18.5842	31.3474	21.1509	31.3474	31.3474	31.3474	31.3474
5093	29.1554	0	300	26.8428	0	573.654	18.5771	31.2761	21.1307	31.2761	31.2761	31.2761	31.2761
5094	29.1397	0	300	26.7944	0	570.792	18.5701	31.2055	21.1107	31.2055	31.2055	31.2055	31.2055
5095	29.1241	0	300	26.7466	0	567.959	18.5632	31.1357	21.0909	31.1357	31.1357	31.1357	31.1357
5096	29.1085	0	300	26.6992	0	565.154	18.5563	31.0665	21.0713	31.0665	31.0665	31.0665	31.0665
5097	29.093	0	300	26.6522	0	562.378	18.5495	30.998	21.0519	30.998	30.998	30.998	30.998
5098	29.0775	0	300	26.6058	0	559.63	18.5428	30.9302	21.0327	30.9302	30.9302	30.9302	30.9302
5099	29.0621	0	300	26.5598	0	556.909	18.5362	30.8631	21.0137	30.8631	30.8631	30.8631	30.8631
5100	29.0467	0	300	26.5143	0	554.215	18.5296	30.7967	20.9949	30.7967	30.7967	30.7967	30.7967
5101	29.0313	0	300	26.4692	0	551.548	18.5231	30.7309	20.9762	30.7309	30.7309	30.7309	30.7309
5102	29.0161	0	300	26.4246	0	548.909	18.5167	30.6658	20.9578	30.6658	30.6658	30.6658	30.6658
5103	29.0008	0	300	26.3805	0	546.295	18.5103	30.6014	20.9396	30.6014	30.6014	30.6014	30.6014
5104	28.9856	0	300	26.3367	0	543.708	18.504	30.5375	20.9215	30.5375	30.5375	30.5375	30.5375
5105	28.9705	0	300	26.2935	0	541.147	18.4977	30.4744	20.9036	30.4744	30.4744	30.4744	30.4744
5106	28.9554	0	300	26.2507	0	538.612	18.4916	30.4119	20.8859	30.4119	30.4119	30.4119	30.4119
5107	28.9404	0	300	26.2082	0	536.103	18.4855	30.35	20.8684	30.35	30.35	30.35	30.35
5108	28.9254	0	300	26.1663	0	533.618	18.4794	30.2887	20.851	30.2887	30.2887	30.2887	30.2887
5109	28.9105	0	300	26.1247	0	531.159	18.4734	30.2281	20.8339	30.2281	30.2281	30.2281	30.2281
5110	28.8956	0	300	26.0836	0	528.724	18.4675	30.168	20.8169	30.168	30.168	30.168	30.168
5111	28.8807	0	300	26.0429	0	526.314	18.4616	30.1086	20.8	30.1086	30.1086	30.1086	30.1086
5112	28.866	0	300	26.0025	0	523.928	18.4558	30.0498	20.7834	30.0498	30.0498	30.0498	30.0498
5113	28.8512	0	300	25.9627	0	521.566	18.45	29.9915	20.7669	29.9915	29.9915	29.9915	29.9915
5114	28.8365	0	300	25.9231	0	519.228	18.4443	29.9339	20.7506	29.9339	29.9339	29.9339	29.9339
5115	28.8219	0	300	25.884	0	516.914	18.4387	29.8768	20.7344	29.8768	29.8768	29.8768	29.8768
5116	28.8073	0	300	25.8453	0	514.623	18.4331	29.8203	20.7184	29.8203	29.8203	29.8203	29.8203
5117	28.7927	0	300	25.807	0	512.355	18.4276	29.7643	20.7026	29.7643	29.7643	29.7643	29.7643
5118	28.7782	0	300	25.7691	0	510.109	18.4221	29.709	20.6869	29.709	29.709	29.709	29.709
5119	28.7638	0	300	25.7315	0	507.887	18.4167	29.6542	20.6714	29.6542	29.6542	29.6542	29.6542
5120	28.7494	0	300	25.6943	0	505.686	18.4113	29.5999	20.656	29.5999	29.5999	29.5999	29.5999
5121	28.735	0	300	25.6575	0	503.508	18.406	29.5462	20.6408	29.5462	29.5462	29.5462	29.5462
5122	28.7207	0	300	25.6211	0	501.352	18.4008	29.493	20.6258	29.493	29.493	29.493	29.493
5123	28.7065	0	300	25.585	0	499.217	18.3956	29.4404	20.6109	29.4404	29.4404	29.4404	29.4404
5124	28.6922	0	300	25.5494	0	497.104	18.3904	29.3883	20.5961	29.3883	29.3883	29.3883	29.3883
5125	28.6781	0	300	25.514	0	495.013	18.3853	29.3367	20.5815	29.3367	29.3367	29.3367	29.3367
5126	28.6639	0	300	25.479	0	492.942	18.3803	29.2856	20.5671	29.2856	29.2856	29.2856	29.2856
5127	28.6499	0	300	25.4444	0	490.892	18.3753	29.2351	20.5527	29.2351	29.2351	29.2351	29.2351
5128	28.6359	0	300	25.4101	0	488.863	18.3704	29.185	20.5386	29.185	29.185	29.185	29.185
5129	28.6219	0	300	25.3762	0	486.854	18.3655	29.1355	20.5246	29.1355	29.1355	29.1355	29.1355
5130	28.6079	0	300	25.3426	0	484.866	18.3606	29.0865	20.5107	29.0865	29.0865	29.0865	29.0865
5131	28.594	0	300	25.3093	0	482.897	18.3558	29.0379	20.4969	29.0379	29.0379	29.0379	29.0379
5132	28.5802	0	300	25.2764	0	480.949	18.3511	28.9899	20.4833	28.9899	28.9899	28.9899	28.9899
5133	28.5664	0	300	25.2438	0	479.019	18.3464	28.9423	20.4699	28.9423	28.9423	28.9423	28.9423
5134	28.5526	0	300	25.2115	0	477.11	18.3417	28.8952	20.4565	28.8952	28.8952	28.8952	28.8952
5135	28.5389	0	300	25.1796	0	475.219	18.3371	28.8486	20.4433	28.8486	28.8486	28.8486	28.8486
5136	28.5253	0	300	25.148	0	473.348	18.3326	28.8024	20.4303	28.8024	28.8024	28.8024	28.8024
5137	28.5116	0	300	25.1167	0	471.495	18.3281	28.7568	20.4173	28.7568	28.7568	28.7568	28.7568
5138	28.4981	0	300	25.0857	0	469.662	18.3236	28.7115	20.4045	28.7115	28.7115	28.7115	28.7115
5139	28.4845	0	300	25.055	0	467.846	18.3192	28.6668	20.3919	28.6668	28.6668	28.6668	28.6668
5140	28.4711	0	300	25.0247	0	466.049	18.3148	28.6225	20.3793	28.6225	28.6225	28.6225	28.6225
5141	28.4576	0	300	24.9946	0	464.27	18.3104	28.5786	20.3669	28.5786	28.5786	28.5786	28.5786
5142	28.4442	0	300	24.9648	0	462.509	18.3062	28.5352	20.3546	28.5352	28.5352	28.5352	28.5352
5143	28.4309	0	300	24.9354	0	460.766	18.3019	28.4921	20.3424	28.4921	28.4921	28.4921	28.4921
5144	28.4175	0	300	24.9062	0	459.04	18.2977	28.4496	20.3304	28.4496	28.4496	28.4496	28.4496
5145	28.4043	0	300	24.8774	0	457.331	18.2935	28.4075	20.3185	28.4075	28.4075	28.4075	28.4075
5146	28.3911	0	300	24.8488	0	455.64	18.2894	28.3658	20.3067	28.3658	28.3658	28.3658	28.3658
5147	28.3779	0	300	24.8205	0	453.966	18.2854	28.3245	20.295	28.3245	28.3245	28.3245	28.3245
5148	28.3648	0	300	24.7925	0	452.308	18.2813	28.2836	20.2834	28.2836	28.2836	28.2836	28.2836
5149	28.3516	0	300	24.7648	0	450.668	18.2773	28.2431	20.2719	28.2431	28.2431	28.2431	28.2431
5150	28.3386	0	300	24.7373	0	449.044	18.2734	28.2031	20.2606	28.2031	28.2031	28.2031	28.2031
5151	28.3256	0	300	24.7102	0	447.436	18.2694	28.1634	20.2494	28.1634	28.1634	28.1634	28.1634
5152	28.3126	0	300	24.6833	0	445.844	18.2656	28.1242	20.2383	28.1242	28.1242	28.1242	28.1242
5153	28.2997	0	300	24.6567	0	444.269	18.2617	28.0853	20.2273	28.0853	28.0853	28.0853	28.0853
5154	28.2868	0	300	24.6303	0	442.709	18.2579	28.0469	20.2164	28.0469	28.0469	28.0469	28.0469
5155	28.274	0	300	24.6042	0	441.165	18.2542	28.0088	20.2056	28.0088	28.0088	28.0088	28.0088
5156	28.2612	0	300	24.5784	0	439.637	18.2504	27.9711	20.1949	27.9711	27.9711	27.9711	27.9711
5157	28.2485	0	300	24.5528	0	438.124	18.2467	27.9338	20.1844	27.9338	27.9338	27.9338	27.9338
5158	28.2357	0	300	24.5275	0	436.626	18.2431	27.8969	20.1739	27.8969	27.8969	27.8969	27.8969
5159	28.2231	0	300	24.5025	0	435.143	18.2395	27.8603	20.1636	27.8603	27.8603	27.8603	27.8603
5160	28.2105	0	300	24.4777	0	433.675	18.2359	27.8241	20.1533	27.8241	27.8241	27.8241	27.8241
5161	28.1979	0	300	24.4531	0	432.222	18.2324	27.7883	20.1432	27.7883	27.7883	27.7883	27.7883
5162	28.1853	0	300	24.4288	0	430.784	18.2289	27.7528	20.1331	27.7528	27.7528	27.7528	27.7528
5163	28.1728	0	300	24.4048	0	429.36	18.2254	27.7177	20.1232	27.7177	27.7177	27.7177	27.7177
5164	28.1604	0	300	24.381	0	427.95	18.222	27.6829	20.1134	27.6829	27.6829	27.6829	27.6829
5165	28.1479	0	300	24.3574	0	426.555	18.2186	27.6485	20.1036	27.6485	27.6485	27.6485	27.6485
5166	28.1356	0	300	24.3341	0	425.174	18.2152	27.6145	20.094	27.6145	27.6145	27.6145	27.6145
5167	28.1232	0	300	24.3109	0	423.806	18.2119	27.5807	20.0844	27.5807	27.5807	27.5807	27.5807
5168	28.1109	0	300	24.2881	0	422.452	18.2086	27.5474	20.075	27.5474	27.5474	27.5474	27.5474
5169	28.0987	0	300	24.2654	0	421.113	18.2053	27.5143	20.0656	27.5143	27.5143	27.5143	27.5143
5170	28.0864	0	300	24.243	0	419.786	18.2021	27.4816	20.0563	27.4816	27.4816	27.4816	27.4816
5171	28.0743	0	300	24.2208	0	418.473	18.1989	27.4492	20.0472	27.4492	27.4492	27.4492	27.4492
5172	28.0621	0	300	24.1989	0	417.173	18.1957	27.4171	20.0381	27.4171	27.4171	27.4171	27.4171
5173	28.05	0	300	24.1771	0	415.886	18.1926	27.3854	20.0291	27.3854	27.3854	27.3854	27.3854
5174	28.038	0	300	24.1556	0	414.612	18.1895	27.354	20.0202	27.354	27.354	27.354	27.354
5175	28.026	0	300	24.1343	0	413.351	18.1864	27.3229	20.0114	27.3229	27.3229	27.3229	27.3229
5176	28.014	0	300	24.1132	0	412.103	18.1834	27.2921	20.0027	27.2921	27.2921	27.2921	27.2921
5177	28.0021	0	300	24.0923	0	410.867	18.1804	27.2616	19.9941	27.2616	27.2616	27.2616	27.2616
5178	27.9902	0	300	24.0717	0	409.644	18.1774	27.2315	19.9855	27.2315	27.2315	27.2315	27.2315
5179	27.9783	0	300	24.0512	0	408.433	18.1744	27.2016	19.9771	27.2016	27.2016	27.2016	27.2016
5180	27.9665	0	300	24.031	0	407.234	18.1715	27.172	19.9687	27.172	27.172	27.172	27.172
5181	27.9547	0	300	24.0109	0	406.047	18.1686	27.1428	19.9604	27.1428	27.1428	27.1428	27.1428
5182	27.9429	0	300	23.9911	0	404.872	18.1657	27.1138	19.9522	27.1138	27.1138	27.1138	27.1138
5183	27.9312	0	300	23.9714	0	403.709	18.1629	27.0851	19.9441	27.0851	27.0851	27.0851	27.0851
5184	27.9196	0	300	23.9519	0	402.558	18.1601	27.0567	19.9361	27.0567	27.0567	27.0567	27.0567
5185	27.9079	0	300	23.9327	0	401.418	18.1573	27.0286	19.9281	27.0286	27.0286	27.0286	27.0286
5186	27.8964	0	300	23.9136	0	400.29	18.1546	27.0008	19.9202	27.0008	27.0008	27.0008	27.0008
5187	27.8848	0	300	23.8948	0	399.173	18.1519	26.9733	19.9124	26.9733	26.9733	26.9733	26.9733
5188	27.8733	0	300	23.8761	0	398.067	18.1492	26.946	19.9047	26.946	26.946	26.946	26.946
5189	27.8618	0	300	23.8576	0	396.973	18.1465	26.919	19.8971	26.919	26.919	26.919	26.919
5190	27.8504	0	300	23.8393	0	395.89	18.1439	26.8923	19.8895	26.8923	26.8923	26.8923	26.8923
5191	27.839	0	300	23.8212	0	394.817	18.1412	26.8658	19.882	26.8658	26.8658	26.8658	26.8658
5192	27.8276	0	300	23.8032	0	393.755	18.1387	26.8397	19.8746	26.8397	26.8397	26.8397	26.8397
5193	27.8163	0	300	23.7855	0	392.704	18.1361	26.8137	19.8673	26.8137	26.8137	26.8137	26.8137
5194	27.805	0	300	23.7679	0	391.664	18.1336	26.7881	19.86	26.7881	26.7881	26.7881	26.7881
5195	27.7937	0	300	23.7505	0	390.634	18.1311	26.7627	19.8528	26.7627	26.7627	26.7627	26.7627
5196	27.7825	0	300	23.7333	0	389.614	18.1286	26.7375	19.8457	26.7375	26.7375	26.7375	26.7375
5197	27.7714	0	300	23.7162	0	388.605	18.1261	26.7127	19.8387	26.7127	26.7127	26.7127	26.7127
5198	27.7602	0	300	23.6993	0	387.606	18.1237	26.688	19.8317	26.688	26.688	26.688	26.688
5199	27.7491	0	300	23.6826	0	386.616	18.1213	26.6636	19.8248	26.6636	26.6636	26.6636	26.6636
5200	27.7381	0	300	23.6661	0	385.637	18.1189	26.6395	19.8179	26.6395	26.6395	26.6395	26.6395
5201	27.727	0	300	23.6497	0	384.668	18.1165	26.6156	19.8112	26.6156	26.6156	26.6156	26.6156
5202	27.716	0	300	23.6335	0	383.709	18.1142	26.5919	19.8045	26.5919	26.5919	26.5919	26.5919
5203	27.7051	0	300	23.6174	0	382.759	18.1119	26.5685	19.7979	26.5685	26.5685	26.5685	26.5685
5204	27.6941	0	300	23.6015	0	381.818	18.1096	26.5453	19.7913	26.5453	26.5453	26.5453	26.5453
5205	27.6833	0	300	23.5858	0	380.887	18.1073	26.5223	19.7848	26.5223	26.5223	26.5223	26.5223
5206	27.6724	0	300	23.5703	0	379.966	18.1051	26.4996	19.7784	26.4996	26.4996	26.4996	26.4996
5207	27.6616	0	300	23.5548	0	379.054	18.1029	26.4771	19.772	26.4771	26.4771	26.4771	26.4771
5208	27.6508	0	300	23.5396	0	378.151	18.1007	26.4549	19.7657	26.4549	26.4549	26.4549	26.4549
5209	27.6401	0	300	23.5245	0	377.257	18.0985	26.4328	19.7595	26.4328	26.4328	26.4328	26.4328
5210	27.6294	0	300	23.5095	0	376.372	18.0963	26.411	19.7533	26.411	26.411	26.411	26.411
5211	27.6187	0	300	23.4947	0	375.496	18.0942	26.3894	19.7472	26.3894	26.3894	26.3894	26.3894
5212	27.608	0	300	23.4801	0	374.629	18.0921	26.368	19.7411	26.368	26.368	26.368	26.368
5213	27.5974	0	300	23.4656	0	373.77	18.09	26.3468	19.7351	26.3468	26.3468	26.3468	26.3468
5214	27.5869	0	300	23.4512	0	372.921	18.0879	26.3259	19.7292	26.3259	26.3259	26.3259	26.3259
5215	27.5763	0	300	23.437	0	372.079	18.0859	26.3051	19.7233	26.3051	26.3051	26.3051	26.3051
5216	27.5658	0	300	23.4229	0	371.247	18.0838	26.2846	19.7175	26.2846	26.2846	26.2846	26.2846
5217	27.5554	0	300	23.409	0	370.422	18.0818	26.2643	19.7117	26.2643	26.2643	26.2643	26.2643
5218	27.545	0	300	23.3952	0	369.606	18.0798	26.2442	19.706	26.2442	26.2442	26.2442	26.2442
5219	27.5345	0	300	23.3816	0	368.798	18.0779	26.2242	19.7004	26.2242	26.2242	26.2242	26.2242
5220	27.5242	0	300	23.3681	0	367.998	18.0759	26.2045	19.6948	26.2045	26.2045	26.2045	26.2045
5221	27.5139	0	300	23.3547	0	367.207	18.074	26.185	19.6893	26.185	26.185	26.185	26.185
5222	27.5036	0	300	23.3414	0	366.423	18.0721	26.1656	19.6838	26.1656	26.1656	26.1656	26.1656
5223	27.4933	0	300	23.3283	0	365.647	18.0702	26.1465	19.6784	26.1465	26.1465	26.1465	26.1465
5224	27.4831	0	300	23.3153	0	364.879	18.0683	26.1276	19.673	26.1276	26.1276	26.1276	26.1276
5225	27.4729	0	300	23.3025	0	364.119	18.0665	26.1088	19.6677	26.1088	26.1088	26.1088	26.1088
5226	27.4627	0	300	23.2898	0	363.366	18.0646	26.0903	19.6625	26.0903	26.0903	26.0903	26.0903
5227	27.4526	0	300	23.2772	0	362.621	18.0628	26.0719	19.6573	26.0719	26.0719	26.0719	26.0719
5228	27.4425	0	300	23.2647	0	361.884	18.061	26.0537	19.6521	26.0537	26.0537	26.0537	26.0537
5229	27.4324	0	300	23.2524	0	361.154	18.0592	26.0357	19.647	26.0357	26.0357	26.0357	26.0357
5230	27.4224	0	300	23.2402	0	360.431	18.0575	26.0179	19.642	26.0179	26.0179	26.0179	26.0179
5231	27.4124	0	300	23.2281	0	359.716	18.0557	26.0002	19.637	26.0002	26.0002	26.0002	26.0002
5232	27.4025	0	300	23.2161	0	359.007	18.054	25.9828	19.632	25.9828	25.9828	25.9828	25.9828
5233	27.3925	0	300	23.2043	0	358.306	18.0523	25.9655	19.6272	25.9655	25.9655	25.9655	25.9655
5234	27.3827	0	300	23.1926	0	357.612	18.0506	25.9484	19.6223	25.9484	25.9484	25.9484	25.9484
5235	27.3728	0	300	23.181	0	356.925	18.0489	25.9314	19.6175	25.9314	25.9314	25.9314	25.9314
5236	27.363	0	300	23.1695	0	356.245	18.0473	25.9147	19.6127	25.9147	25.9147	25.9147	25.9147
5237	27.3532	0	300	23.1581	0	355.571	18.0456	25.8981	19.608	25.8981	25.8981	25.8981	25.8981
5238	27.3434	0	300	23.1468	0	354.905	18.044	25.8816	19.6034	25.8816	25.8816	25.8816	25.8816
5239	27.3337	0	300	23.1357	0	354.245	18.0424	25.8653	19.5988	25.8653	25.8653	25.8653	25.8653
5240	27.324	0	300	23.1246	0	353.592	18.0408	25.8492	19.5942	25.8492	25.8492	25.8492	25.8492
5241	27.3143	0	300	23.1137	0	352.945	18.0392	25.8333	19.5897	25.8333	25.8333	25.8333	25.8333
5242	27.3047	0	300	23.1029	0	352.305	18.0377	25.8175	19.5852	25.8175	25.8175	25.8175	25.8175
5243	27.295	0	300	23.0922	0	351.671	18.0361	25.8019	19.5808	25.8019	25.8019	25.8019	25.8019
5244	27.2855	0	300	23.0816	0	351.044	18.0346	25.7864	19.5765	25.7864	25.7864	25.7864	25.7864
5245	27.2759	0	300	23.0711	0	350.423	18.0331	25.7711	19.5721	25.7711	25.7711	25.7711	25.7711
5246	27.2664	0	300	23.0607	0	349.808	18.0316	25.7559	19.5678	25.7559	25.7559	25.7559	25.7559
5247	27.2569	0	300	23.0504	0	349.2	18.0301	25.7409	19.5636	25.7409	25.7409	25.7409	25.7409
5248	27.2475	0	300	23.0403	0	348.598	18.0286	25.7261	19.5594	25.7261	25.7261	25.7261	25.7261
5249	27.2381	0	300	23.0302	0	348.001	18.0272	25.7114	19.5552	25.7114	25.7114	25.7114	25.7114
5250	27.2287	0	300	23.0202	0	347.411	18.0258	25.6968	19.5511	25.6968	25.6968	25.6968	25.6968
5251	27.2193	0	300	23.0103	0	346.827	18.0243	25.6824	19.547	25.6824	25.6824	25.6824	25.6824
5252	27.21	0	300	23.0006	0	346.248	18.0229	25.6681	19.543	25.6681	25.6681	25.6681	25.6681
5253	27.2007	0	300	22.9909	0	345.675	18.0215	25.654	19.539	25.654	25.654	25.654	25.654
5254	27.1914	0	300	22.9813	0	345.108	18.0202	25.64	19.535	25.64	25.64	25.64	25.64
5255	27.1822	0	300	22.9718	0	344.547	18.0188	25.6262	19.5311	25.6262	25.6262	25.6262	25.6262
5256	27.173	0	300	22.9625	0	343.992	18.0174	25.6125	19.5272	25.6125	25.6125	25.6125	25.6125
5257	27.1638	0	300	22.9532	0	343.442	18.0161	25.5989	19.5234	25.5989	25.5989	25.5989	25.5989
5258	27.1547	0	300	22.944	0	342.897	18.0148	25.5855	19.5196	25.5855	25.5855	25.5855	25.5855
5259	27.1456	0	300	22.9349	0	342.358	18.0134	25.5722	19.5158	25.5722	25.5722	25.5722	25.5722
5260	27.1365	0	300	22.9258	0	341.825	18.0121	25.5591	19.5121	25.5591	25.5591	25.5591	25.5591
5261	27.1274	0	300	22.9169	0	341.297	18.0109	25.546	19.5084	25.546	25.546	25.546	25.546
5262	27.1184	0	300	22.9081	0	340.774	18.0096	25.5331	19.5048	25.5331	25.5331	25.5331	25.5331
5263	27.1094	0	300	22.8993	0	340.257	18.0083	25.5204	19.5011	25.5204	25.5204	25.5204	25.5204
5264	27.1005	0	300	22.8907	0	339.744	18.0071	25.5078	19.4976	25.5078	25.5078	25.5078	25.5078
5265	27.0915	0	300	22.8821	0	339.237	18.0058	25.4952	19.494	25.4952	25.4952	25.4952	25.4952
5266	27.0826	0	300	22.8736	0	338.735	18.0046	25.4829	19.4905	25.4829	25.4829	25.4829	25.4829
5267	27.0738	0	300	22.8652	0	338.238	18.0034	25.4706	19.487	25.4706	25.4706	25.4706	25.4706
5268	27.0649	0	300	22.8569	0	337.746	18.0022	25.4585	19.4836	25.4585	25.4585	25.4585	25.4585
5269	27.0561	0	300	22.8487	0	337.259	18.001	25.4465	19.4802	25.4465	25.4465	25.4465	25.4465
5270	27.0473	0	300	22.8406	0	336.777	17.9999	25.4346	19.4768	25.4346	25.4346	25.4346	25.4346
5271	27.0385	0	300	22.8325	0	336.3	17.9987	25.4228	19.4735	25.4228	25.4228	25.4228	25.4228
5272	27.0298	0	300	22.8245	0	335.827	17.9975	25.4111	19.4702	25.4111	25.4111	25.4111	25.4111
5273	27.0211	0	300	22.8166	0	335.359	17.9964	25.3996	19.467	25.3996	25.3996	25.3996	25.3996
5274	27.0124	0	300	22.8088	0	334.896	17.9953	25.3882	19.4637	25.3882	25.3882	25.3882	25.3882
5275	27.0038	0	300	22.801	0	334.438	17.9942	25.3769	19.4605	25.3769	25.3769	25.3769	25.3769
5276	26.9952	0	300	22.7934	0	333.984	17.9931	25.3657	19.4574	25.3657	25.3657	25.3657	25.3657
5277	26.9866	0	300	22.7858	0	333.535	17.992	25.3546	19.4542	25.3546	25.3546	25.3546	25.3546
5278	26.978	0	300	22.7783	0	333.09	17.9909	25.3437	19.4511	25.3437	25.3437	25.3437	25.3437
5279	26.9695	0	300	22.7708	0	332.65	17.9898	25.3328	19.448	25.3328	25.3328	25.3328	25.3328
5280	26.961	0	300	22.7635	0	332.214	17.9887	25.3221	19.445	25.3221	25.3221	25.3221	25.3221
5281	26.9525	0	300	22.7562	0	331.783	17.9877	25.3114	19.442	25.3114	25.3114	25.3114	25.3114
5282	26.9441	0	300	22.749	0	331.356	17.9867	25.3009	19.439	25.3009	25.3009	25.3009	25.3009
5283	26.9356	0	300	22.7418	0	330.933	17.9856	25.2905	19.4361	25.2905	25.2905	25.2905	25.2905
5284	26.9273	0	300	22.7347	0	330.515	17.9846	25.2801	19.4331	25.2801	25.2801	25.2801	25.2801
5285	26.9189	0	300	22.7278	0	330.101	17.9836	25.2699	19.4302	25.2699	25.2699	25.2699	25.2699
5286	26.9106	0	300	22.7208	0	329.691	17.9826	25.2598	19.4274	25.2598	25.2598	25.2598	25.2598
5287	26.9022	0	300	22.714	0	329.285	17.9816	25.2498	19.4245	25.2498	25.2498	25.2498	25.2498
5288	26.894	0	300	22.7072	0	328.883	17.9806	25.2399	19.4217	25.2399	25.2399	25.2399	25.2399
5289	26.8857	0	300	22.7005	0	328.485	17.9797	25.2301	19.419	25.2301	25.2301	25.2301	25.2301
5290	26.8775	0	300	22.6938	0	328.091	17.9787	25.2204	19.4162	25.2204	25.2204	25.2204	25.2204
5291	26.8693	0	300	22.6872	0	327.702	17.9778	25.2108	19.4135	25.2108	25.2108	25.2108	25.2108
5292	26.8611	0	300	22.6807	0	327.316	17.9768	25.2013	19.4108	25.2013	25.2013	25.2013	25.2013
5293	26.853	0	300	22.6742	0	326.934	17.9759	25.1918	19.4081	25.1918	25.1918	25.1918	25.1918
5294	26.8448	0	300	22.6679	0	326.555	17.975	25.1825	19.4055	25.1825	25.1825	25.1825	25.1825
5295	26.8367	0	300	22.6615	0	326.181	17.974	25.1733	19.4029	25.1733	25.1733	25.1733	25.1733
5296	26.8287	0	300	22.6553	0	325.81	17.9731	25.1641	19.4003	25.1641	25.1641	25.1641	25.1641
5297	26.8206	0	300	22.6491	0	325.444	17.9722	25.1551	19.3977	25.1551	25.1551	25.1551	25.1551
5298	26.8126	0	300	22.6429	0	325.08	17.9714	25.1461	19.3952	25.1461	25.1461	25.1461	25.1461
5299	26.8046	0	300	22.6369	0	324.721	17.9705	25.1373	19.3927	25.1373	25.1373	25.1373	25.1373
5300	26.7967	0	300	22.6308	0	324.365	17.9696	25.1285	19.3902	25.1285	25.1285	25.1285	25.1285
5301	26.7887	0	300	22.6249	0	324.013	17.9688	25.1198	19.3877	25.1198	25.1198	25.1198	25.1198
5302	26.7808	0	300	22.619	0	323.664	17.9679	25.1112	19.3853	25.1112	25.1112	25.1112	25.1112
5303	26.7729	0	300	22.6132	0	323.319	17.9671	25.1027	19.3829	25.1027	25.1027	25.1027	25.1027
5304	26.7651	0	300	22.6074	0	322.977	17.9662	25.0943	19.3805	25.0943	25.0943	25.0943	25.0943
5305	26.7573	0	300	22.6017	0	322.639	17.9654	25.0859	19.3781	25.0859	25.0859	25.0859	25.0859
5306	26.7494	0	300	22.596	0	322.304	17.9646	25.0777	19.3758	25.0777	25.0777	25.0777	25.0777
5307	26.7417	0	300	22.5904	0	321.972	17.9638	25.0695	19.3735	25.0695	25.0695	25.0695	25.0695
5308	26.7339	0	300	22.5849	0	321.644	17.963	25.0614	19.3712	25.0614	25.0614	25.0614	25.0614
5309	26.7262	0	300	22.5794	0	321.319	17.9622	25.0534	19.3689	25.0534	25.0534	25.0534	25.0534
5310	26.7185	0	300	22.5739	0	320.997	17.9614	25.0454	19.3667	25.0454	25.0454	25.0454	25.0454
5311	26.7108	0	300	22.5686	0	320.679	17.9606	25.0376	19.3645	25.0376	25.0376	25.0376	25.0376
5312	26.7032	0	300	22.5632	0	320.364	17.9599	25.0298	19.3623	25.0298	25.0298	25.0298	25.0298
5313	26.6955	0	300	22.558	0	320.052	17.9591	25.0221	19.3601	25.0221	25.0221	25.0221	25.0221
5314	26.6879	0	300	22.5527	0	319.743	17.9584	25.0145	19.3579	25.0145	25.0145	25.0145	25.0145
5315	26.6803	0	300	22.5476	0	319.437	17.9576	25.007	19.3558	25.007	25.007	25.007	25.007
5316	26.6728	0	300	22.5425	0	319.135	17.9569	24.9995	19.3537	24.9995	24.9995	24.9995	24.9995
5317	26.6653	0	300	22.5374	0	318.835	17.9562	24.9921	19.3516	24.9921	24.9921	24.9921	24.9921
5318	26.6578	0	300	22.5324	0	318.538	17.9554	24.9848	19.3495	24.9848	24.9848	24.9848	24.9848
5319	26.6503	0	300	22.5274	0	318.245	17.9547	24.9776	19.3475	24.9776	24.9776	24.9776	24.9776
5320	26.6428	0	300	22.5225	0	317.954	17.954	24.9704	19.3454	24.9704	24.9704	24.9704	24.9704
5321	26.6354	0	300	22.5177	0	317.666	17.9533	24.9633	19.3434	24.9633	24.9633	24.9633	24.9633
5322	26.628	0	300	22.5129	0	317.381	17.9526	24.9563	19.3414	24.9563	24.9563	24.9563	24.9563
5323	26.6206	0	300	22.5081	0	317.099	17.9519	24.9493	19.3395	24.9493	24.9493	24.9493	24.9493
5324	26.6133	0	300	22.5034	0	316.82	17.9512	24.9424	19.3375	24.9424	24.9424	24.9424	24.9424
5325	26.6059	0	300	22.4987	0	316.544	17.9506	24.9356	19.3356	24.9356	24.9356	24.9356	24.9356
5326	26.5986	0	300	22.4941	0	316.27	17.9499	24.9289	19.3337	24.9289	24.9289	24.9289	24.9289
5327	26.5913	0	300	22.4895	0	316	17.9492	24.9222	19.3318	24.9222	24.9222	24.9222	24.9222
5328	26.5841	0	300	22.485	0	315.731	17.9486	24.9156	19.3299	24.9156	24.9156	24.9156	24.9156
5329	26.5768	0	300	22.4805	0	315.466	17.9479	24.9091	19.3281	24.9091	24.9091	24.9091	24.9091
5330	26.5696	0	300	22.4761	0	315.203	17.9473	24.9026	19.3262	24.9026	24.9026	24.9026	24.9026
5331	26.5624	0	300	22.4717	0	314.943	17.9467	24.8961	19.3244	24.8961	24.8961	24.8961	24.8961
5332	26.5553	0	300	22.4673	0	314.686	17.946	24.8898	19.3226	24.8898	24.8898	24.8898	24.8898
5333	26.5481	0	300	22.463	0	314.431	17.9454	24.8835	19.3209	24.8835	24.8835	24.8835	24.8835
5334	26.541	0	300	22.4587	0	314.179	17.9448	24.8773	19.3191	24.8773	24.8773	24.8773	24.8773
5335	26.5339	0	300	22.4545	0	313.929	17.9442	24.8711	19.3173	24.8711	24.8711	24.8711	24.8711
5336	26.5268	0	300	22.4504	0	313.682	17.9436	24.8651	19.3156	24.8651	24.8651	24.8651	24.8651
5337	26.5198	0	300	22.4462	0	313.437	17.943	24.859	19.3139	24.859	24.859	24.859	24.859
5338	26.5128	0	300	22.4421	0	313.195	17.9424	24.853	19.3122	24.853	24.853	24.853	24.853
5339	26.5058	0	300	22.4381	0	312.955	17.9418	24.8471	19.3105	24.8471	24.8471	24.8471	24.8471
5340	26.4988	0	300	22.4341	0	312.718	17.9412	24.8413	19.3089	24.8413	24.8413	24.8413	24.8413
5341	26.4918	0	300	22.4301	0	312.483	17.9407	24.8355	19.3072	24.8355	24.8355	24.8355	24.8355
5342	26.4849	0	300	22.4262	0	312.25	17.9401	24.8297	19.3056	24.8297	24.8297	24.8297	24.8297
5343	26.478	0	300	22.4223	0	312.02	17.9395	24.8241	19.304	24.8241	24.8241	24.8241	24.8241
5344	26.4711	0	300	22.4184	0	311.792	17.939	24.8184	19.3024	24.8184	24.8184	24.8184	24.8184
5345	26.4642	0	300	22.4146	0	311.566	17.9384	24.8129	19.3008	24.8129	24.8129	24.8129	24.8129
5346	26.4574	0	300	22.4108	0	311.342	17.9379	24.8074	19.2993	24.8074	24.8074	24.8074	24.8074
5347	26.4506	0	300	22.4071	0	311.121	17.9374	24.8019	19.2977	24.8019	24.8019	24.8019	24.8019
5348	26.4438	0	300	22.4034	0	310.902	17.9368	24.7965	19.2962	24.7965	24.7965	24.7965	24.7965
5349	26.437	0	300	22.3997	0	310.686	17.9363	24.7912	19.2947	24.7912	24.7912	24.7912	24.7912
5350	26.4303	0	300	22.3961	0	310.471	17.9358	24.7859	19.2932	24.7859	24.7859	24.7859	24.7859
5351	26.4235	0	300	22.3925	0	310.259	17.9352	24.7806	19.2917	24.7806	24.7806	24.7806	24.7806
5352	26.4168	0	300	22.389	0	310.048	17.9347	24.7754	19.2903	24.7754	24.7754	24.7754	24.7754
5353	26.4101	0	300	22.3854	0	309.84	17.9342	24.7703	19.2888	24.7703	24.7703	24.7703	24.7703
5354	26.4035	0	300	22.382	0	309.634	17.9337	24.7652	19.2874	24.7652	24.7652	24.7652	24.7652
5355	26.3968	0	300	22.3785	0	309.43	17.9332	24.7602	19.2859	24.7602	24.7602	24.7602	24.7602
5356	26.3902	0	300	22.3751	0	309.228	17.9327	24.7552	19.2845	24.7552	24.7552	24.7552	24.7552
5357	26.3836	0	300	22.3717	0	309.029	17.9323	24.7503	19.2831	24.7503	24.7503	24.7503	24.7503
5358	26.377	0	300	22.3684	0	308.831	17.9318	24.7454	19.2817	24.7454	24.7454	24.7454	24.7454
5359	26.3705	0	300	22.3651	0	308.635	17.9313	24.7406	19.2804	24.7406	24.7406	24.7406	24.7406
5360	26.3639	0	300	22.3618	0	308.441	17.9308	24.7358	19.279	24.7358	24.7358	24.7358	24.7358
5361	26.3574	0	300	22.3586	0	308.249	17.9304	24.7311	19.2777	24.7311	24.7311	24.7311	24.7311
5362	26.3509	0	300	22.3554	0	308.059	17.9299	24.7264	19.2764	24.7264	24.7264	24.7264	24.7264
5363	26.3445	0	300	22.3522	0	307.871	17.9294	24.7217	19.2751	24.7217	24.7217	24.7217	24.7217
5364	26.338	0	300	22.349	0	307.685	17.929	24.7172	19.2737	24.7172	24.7172	24.7172	24.7172
5365	26.3316	0	300	22.3459	0	307.5	17.9285	24.7126	19.2725	24.7126	24.7126	24.7126	24.7126
5366	26.3252	0	300	22.3428	0	307.318	17.9281	24.7081	19.2712	24.7081	24.7081	24.7081	24.7081
5367	26.3188	0	300	22.3398	0	307.137	17.9276	24.7036	19.2699	24.7036	24.7036	24.7036	24.7036
5368	26.3124	0	300	22.3367	0	306.958	17.9272	24.6992	19.2687	24.6992	24.6992	24.6992	24.6992
5369	26.3061	0	300	22.3338	0	306.781	17.9268	24.6949	19.2674	24.6949	24.6949	24.6949	24.6949
5370	26.2998	0	300	22.3308	0	306.606	17.9264	24.6906	19.2662	24.6906	24.6906	24.6906	24.6906
5371	26.2935	0	300	22.3279	0	306.433	17.9259	24.6863	19.265	24.6863	24.6863	24.6863	24.6863
5372	26.2872	0	300	22.325	0	306.261	17.9255	24.682	19.2638	24.682	24.682	24.682	24.682
5373	26.2809	0	300	22.3221	0	306.091	17.9251	24.6778	19.2626	24.6778	24.6778	24.6778	24.6778
5374	26.2747	0	300	22.3193	0	305.923	17.9247	24.6737	19.2614	24.6737	24.6737	24.6737	24.6737
5375	26.2685	0	300	22.3164	0	305.756	17.9243	24.6696	19.2603	24.6696	24.6696	24.6696	24.6696
5376	26.2623	0	300	22.3136	0	305.591	17.9239	24.6655	19.2591	24.6655	24.6655	24.6655	24.6655
5377	26.2561	0	300	22.3109	0	305.428	17.9235	24.6615	19.258	24.6615	24.6615	24.6615	24.6615
5378	26.2499	0	300	22.3082	0	305.266	17.9231	24.6575	19.2569	24.6575	24.6575	24.6575	24.6575
5379	26.2438	0	300	22.3055	0	305.106	17.9227	24.6536	19.2557	24.6536	24.6536	24.6536	24.6536
5380	26.2377	0	300	22.3028	0	304.948	17.9223	24.6497	19.2546	24.6497	24.6497	24.6497	24.6497
5381	26.2316	0	300	22.3001	0	304.791	17.9219	24.6458	19.2536	24.6458	24.6458	24.6458	24.6458
5382	26.2255	0	300	22.2975	0	304.636	17.9216	24.642	19.2525	24.642	24.642	24.642	24.642
5383	26.2195	0	300	22.2949	0	304.482	17.9212	24.6382	19.2514	24.6382	24.6382	24.6382	24.6382
5384	26.2134	0	300	22.2923	0	304.33	17.9208	24.6344	19.2503	24.6344	24.6344	24.6344	24.6344
5385	26.2074	0	300	22.2898	0	304.18	17.9204	24.6307	19.2493	24.6307	24.6307	24.6307	24.6307
5386	26.2014	0	300	22.2873	0	304.03	17.9201	24.627	19.2482	24.627	24.627	24.627	24.627
5387	26.1954	0	300	22.2848	0	303.883	17.9197	24.6234	19.2472	24.6234	24.6234	24.6234	24.6234
5388	26.1895	0	300	22.2823	0	303.737	17.9194	24.6198	19.2462	24.6198	24.6198	24.6198	24.6198
5389	26.1835	0	300	22.2799	0	303.592	17.919	24.6162	19.2452	24.6162	24.6162	24.6162	24.6162
5390	26.1776	0	300	22.2775	0	303.449	17.9187	24.6127	19.2442	24.6127	24.6127	24.6127	24.6127
5391	26.1717	0	300	22.2751	0	303.307	17.9183	24.6092	19.2432	24.6092	24.6092	24.6092	24.6092
5392	26.1658	0	300	22.2727	0	303.167	17.918	24.6058	19.2422	24.6058	24.6058	24.6058	24.6058
5393	26.16	0	300	22.2704	0	303.028	17.9176	24.6023	19.2412	24.6023	24.6023	24.6023	24.6023
5394	26.1541	0	300	22.268	0	302.891	17.9173	24.5989	19.2403	24.5989	24.5989	24.5989	24.5989
5395	26.1483	0	300	22.2657	0	302.755	17.917	24.5956	19.2393	24.5956	24.5956	24.5956	24.5956
5396	26.1425	0	300	22.2635	0	302.62	17.9166	24.5923	19.2384	24.5923	24.5923	24.5923	24.5923
5397	26.1367	0	300	22.2612	0	302.487	17.9163	24.589	19.2375	24.589	24.589	24.589	24.589
5398	26.131	0	300	22.259	0	302.355	17.916	24.5857	19.2365	24.5857	24.5857	24.5857	24.5857
5399	26.1252	0	300	22.2568	0	302.224	17.9157	24.5825	19.2356	24.5825	24.5825	24.5825	24.5825
5400	26.1195	0	300	22.2546	0	302.095	17.9154	24.5793	19.2347	24.5793	24.5793	24.5793	24.5793
5401	26.1138	0	300	22.2524	0	301.967	17.9151	24.5761	19.2338	24.5761	24.5761	24.5761	24.5761
5402	26.1081	0	300	22.2503	0	301.84	17.9147	24.573	19.2329	24.573	24.573	24.573	24.573
5403	26.1024	0	300	22.2481	0	301.714	17.9144	24.5699	19.2321	24.5699	24.5699	24.5699	24.5699
5404	26.0968	0	300	22.2461	0	301.59	17.9141	24.5669	19.2312	24.5669	24.5669	24.5669	24.5669
5405	26.0911	0	300	22.244	0	301.467	17.9138	24.5638	19.2303	24.5638	24.5638	24.5638	24.5638
5406	26.0855	0	300	22.2419	0	301.346	17.9135	24.5608	19.2295	24.5608	24.5608	24.5608	24.5608
5407	26.0799	0	300	22.2399	0	301.225	17.9133	24.5579	19.2286	24.5579	24.5579	24.5579	24.5579
5408	26.0743	0	300	22.2379	0	301.106	17.913	24.5549	19.2278	24.5549	24.5549	24.5549	24.5549
5409	26.0688	0	300	22.2359	0	300.988	17.9127	24.552	19.227	24.552	24.552	24.552	24.552
5410	26.0632	0	300	22.2339	0	300.871	17.9124	24.5491	19.2262	24.5491	24.5491	24.5491	24.5491
5411	26.0577	0	300	22.2319	0	300.755	17.9121	24.5463	19.2254	24.5463	24.5463	24.5463	24.5463
5412	26.0522	0	300	22.23	0	300.64	17.9118	24.5434	19.2246	24.5434	24.5434	24.5434	24.5434
5413	26.0467	0	300	22.2281	0	300.527	17.9115	24.5406	19.2238	24.5406	24.5406	24.5406	24.5406
5414	26.0413	0	300	22.2262	0	300.415	17.9113	24.5379	19.223	24.5379	24.5379	24.5379	24.5379
5415	26.0358	0	300	22.2243	0	300.304	17.911	24.5351	19.2222	24.5351	24.5351	24.5351	24.5351
5416	26.0304	0	300	22.2225	0	300.194	17.9107	24.5324	19.2215	24.5324	24.5324	24.5324	24.5324
5417	26.025	0	300	22.2206	0	300.085	17.9105	24.5297	19.2207	24.5297	24.5297	24.5297	24.5297
5418	26.0195	0	300	22.2188	0	299.977	17.9102	24.5271	19.2199	24.5271	24.5271	24.5271	24.5271
5419	26.0142	0	300	22.217	0	299.87	17.9099	24.5245	19.2192	24.5245	24.5245	24.5245	24.5245
5420	26.0088	0	300	22.2152	0	299.764	17.9097	24.5218	19.2185	24.5218	24.5218	24.5218	24.5218
5421	26.0035	0	300	22.2134	0	299.66	17.9094	24.5193	19.2177	24.5193	24.5193	24.5193	24.5193
5422	25.9981	0	300	22.2117	0	299.556	17.9092	24.5167	19.217	24.5167	24.5167	24.5167	24.5167
5423	25.9928	0	300	22.21	0	299.454	17.9089	24.5142	19.2163	24.5142	24.5142	24.5142	24.5142
5424	25.9875	0	300	22.2082	0	299.352	17.9087	24.5117	19.2156	24.5117	24.5117	24.5117	24.5117
5425	25.9823	0	300	22.2066	0	299.252	17.9084	24.5092	19.2149	24.5092	24.5092	24.5092	24.5092
5426	25.977	0	300	22.2049	0	299.153	17.9082	24.5068	19.2142	24.5068	24.5068	24.5068	24.5068
5427	25.9718	0	300	22.2032	0	299.054	17.908	24.5043	19.2135	24.5043	24.5043	24.5043	24.5043
5428	25.9666	0	300	22.2016	0	298.957	17.9077	24.5019	19.2128	24.5019	24.5019	24.5019	24.5019
5429	25.9613	0	300	22.1999	0	298.86	17.9075	24.4995	19.2121	24.4995	24.4995	24.4995	24.4995
5430	25.9562	0	300	22.1983	0	298.765	17.9073	24.4972	19.2115	24.4972	24.4972	24.4972	24.4972
5431	25.951	0	300	22.1967	0	298.67	17.907	24.4949	19.2108	24.4949	24.4949	24.4949	24.4949
5432	25.9458	0	300	22.1951	0	298.577	17.9068	24.4926	19.2102	24.4926	24.4926	24.4926	24.4926
5433	25.9407	0	300	22.1936	0	298.484	17.9066	24.4903	19.2095	24.4903	24.4903	24.4903	24.4903
5434	25.9356	0	300	22.192	0	298.392	17.9063	24.488	19.2089	24.488	24.488	24.488	24.488
5435	25.9305	0	300	22.1905	0	298.302	17.9061	24.4858	19.2082	24.4858	24.4858	24.4858	24.4858
5436	25.9254	0	300	22.189	0	298.212	17.9059	24.4836	19.2076	24.4836	24.4836	24.4836	24.4836
5437	25.9203	0	300	22.1875	0	298.123	17.9057	24.4814	19.207	24.4814	24.4814	24.4814	24.4814
5438	25.9153	0	300	22.186	0	298.035	17.9055	24.4792	19.2064	24.4792	24.4792	24.4792	24.4792
5439	25.9102	0	300	22.1845	0	297.948	17.9053	24.477	19.2058	24.477	24.477	24.477	24.477
5440	25.9052	0	300	22.1831	0	297.861	17.905	24.4749	19.2052	24.4749	24.4749	24.4749	24.4749
5441	25.9002	0	300	22.1816	0	297.776	17.9048	24.4728	19.2046	24.4728	24.4728	24.4728	24.4728
5442	25.8952	0	300	22.1802	0	297.691	17.9046	24.4707	19.204	24.4707	24.4707	24.4707	24.4707
5443	25.8902	0	300	22.1788	0	297.608	17.9044	24.4687	19.2034	24.4687	24.4687	24.4687	24.4687
5444	25.8853	0	300	22.1774	0	297.525	17.9042	24.4666	19.2028	24.4666	24.4666	24.4666	24.4666
5445	25.8803	0	300	22.176	0	297.443	17.904	24.4646	19.2022	24.4646	24.4646	24.4646	24.4646
5446	25.8754	0	300	22.1746	0	297.361	17.9038	24.4626	19.2017	24.4626	24.4626	24.4626	24.4626
5447	25.8705	0	300	22.1732	0	297.281	17.9036	24.4606	19.2011	24.4606	24.4606	24.4606	24.4606
5448	25.8656	0	300	22.1719	0	297.202	17.9034	24.4586	19.2006	24.4586	24.4586	24.4586	24.4586
5449	25.8607	0	300	22.1706	0	297.123	17.9032	24.4567	19.2	24.4567	24.4567	24.4567	24.4567
5450	25.8559	0	300	22.1693	0	297.045	17.9031	24.4548	19.1995	24.4548	24.4548	24.4548	24.4548
5451	25.8511	0	300	22.168	0	296.968	17.9029	24.4529	19.1989	24.4529	24.4529	24.4529	24.4529
5452	25.8462	0	300	22.1667	0	296.891	17.9027	24.451	19.1984	24.451	24.451	24.451	24.451
5453	25.8414	0	300	22.1654	0	296.815	17.9025	24.4491	19.1979	24.4491	24.4491	24.4491	24.4491
5454	25.8366	0	300	22.1641	0	296.741	17.9023	24.4473	19.1974	24.4473	24.4473	24.4473	24.4473
5455	25.8318	0	300	22.1629	0	296.666	17.9021	24.4454	19.1968	24.4454	24.4454	24.4454	24.4454
5456	25.8271	0	300	22.1616	0	296.593	17.902	24.4436	19.1963	24.4436	24.4436	24.4436	24.4436
5457	25.8223	0	300	22.1604	0	296.52	17.9018	24.4418	19.1958	24.4418	24.4418	24.4418	24.4418
5458	25.8176	0	300	22.1592	0	296.449	17.9016	24.4401	19.1953	24.4401	24.4401	24.4401	24.4401
5459	25.8129	0	300	22.158	0	296.377	17.9014	24.4383	19.1948	24.4383	24.4383	24.4383	24.4383
5460	25.8082	0	300	22.1568	0	296.307	17.9013	24.4366	19.1943	24.4366	24.4366	24.4366	24.4366
5461	25.8035	0	300	22.1556	0	296.237	17.9011	24.4349	19.1938	24.4349	24.4349	24.4349	24.4349
5462	25.7988	0	300	22.1545	0	296.168	17.9009	24.4332	19.1933	24.4332	24.4332	24.4332	24.4332
5463	25.7942	0	300	22.1533	0	296.1	17.9008	24.4315	19.1929	24.4315	24.4315	24.4315	24.4315
5464	25.7895	0	300	22.1521	0	296.032	17.9006	24.4298	19.1924	24.4298	24.4298	24.4298	24.4298
5465	25.7849	0	300	22.151	0	295.965	17.9004	24.4281	19.1919	24.4281	24.4281	24.4281	24.4281
5466	25.7803	0	300	22.1499	0	295.899	17.9003	24.4265	19.1915	24.4265	24.4265	24.4265	24.4265
5467	25.7757	0	300	22.1488	0	295.833	17.9001	24.4249	19.191	24.4249	24.4249	24.4249	24.4249
5468	25.7711	0	300	22.1477	0	295.768	17.9	24.4233	19.1906	24.4233	24.4233	24.4233	24.4233
5469	25.7666	0	300	22.1466	0	295.704	17.8998	24.4217	19.1901	24.4217	24.4217	24.4217	24.4217
5470	25.762	0	300	22.1455	0	295.64	17.8996	24.4201	19.1897	24.4201	24.4201	24.4201	24.4201
5471	25.7575	0	300	22.1445	0	295.577	17.8995	24.4186	19.1892	24.4186	24.4186	24.4186	24.4186
5472	25.753	0	300	22.1434	0	295.514	17.8993	24.417	19.1888	24.417	24.417	24.417	24.417
5473	25.7485	0	300	22.1424	0	295.453	17.8992	24.4155	19.1883	24.4155	24.4155	24.4155	24.4155
5474	25.744	0	300	22.1413	0	295.392	17.899	24.414	19.1879	24.414	24.414	24.414	24.414
5475	25.7395	0	300	22.1403	0	295.331	17.8989	24.4125	19.1875	24.4125	24.4125	24.4125	24.4125
5476	25.7351	0	300	22.1393	0	295.271	17.8987	24.411	19.1871	24.411	24.411	24.411	24.411
5477	25.7306	0	300	22.1383	0	295.212	17.8986	24.4096	19.1867	24.4096	24.4096	24.4096	24.4096
5478	25.7262	0	300	22.1373	0	295.153	17.8985	24.4081	19.1863	24.4081	24.4081	24.4081	24.4081
5479	25.7218	0	300	22.1363	0	295.095	17.8983	24.4067	19.1859	24.4067	24.4067	24.4067	24.4067
5480	25.7174	0	300	22.1353	0	295.037	17.8982	24.4053	19.1854	24.4053	24.4053	24.4053	24.4053
5481	25.713	0	300	22.1344	0	294.98	17.898	24.4039	19.1851	24.4039	24.4039	24.4039	24.4039
5482	25.7086	0	300	22.1334	0	294.924	17.8979	24.4025	19.1847	24.4025	24.4025	24.4025	24.4025
5483	25.7042	0	300	22.1325	0	294.868	17.8978	24.4011	19.1843	24.4011	24.4011	24.4011	24.4011
5484	25.6999	0	300	22.1316	0	294.813	17.8976	24.3997	19.1839	24.3997	24.3997	24.3997	24.3997
5485	25.6956	0	300	22.1306	0	294.758	17.8975	24.3984	19.1835	24.3984	24.3984	24.3984	24.3984
5486	25.6913	0	300	22.1297	0	294.704	17.8974	24.3971	19.1831	24.3971	24.3971	24.3971	24.3971
5487	25.687	0	300	22.1288	0	294.65	17.8972	24.3957	19.1827	24.3957	24.3957	24.3957	24.3957
5488	25.6827	0	300	22.1279	0	294.597	17.8971	24.3944	19.1824	24.3944	24.3944	24.3944	24.3944
5489	25.6784	0	300	22.127	0	294.545	17.897	24.3931	19.182	24.3931	24.3931	24.3931	24.3931
5490	25.6742	0	300	22.1261	0	294.493	17.8968	24.3918	19.1817	24.3918	24.3918	24.3918	24.3918
5491	25.6699	0	300	22.1253	0	294.441	17.8967	24.3906	19.1813	24.3906	24.3906	24.3906	24.3906
5492	25.6657	0	300	22.1244	0	294.39	17.8966	24.3893	19.1809	24.3893	24.3893	24.3893	24.3893
5493	25.6615	0	300	22.1236	0	294.34	17.8965	24.3881	19.1806	24.3881	24.3881	24.3881	24.3881
5494	25.6573	0	300	22.1227	0	294.29	17.8964	24.3868	19.1802	24.3868	24.3868	24.3868	24.3868
5495	25.6531	0	300	22.1219	0	294.24	17.8962	24.3856	19.1799	24.3856	24.3856	24.3856	24.3856
5496	25.6489	0	300	22.1211	0	294.191	17.8961	24.3844	19.1795	24.3844	24.3844	24.3844	24.3844
5497	25.6447	0	300	22.1202	0	294.143	17.896	24.3832	19.1792	24.3832	24.3832	24.3832	24.3832
5498	25.6406	0	300	22.1194	0	294.095	17.8959	24.382	19.1789	24.382	24.382	24.382	24.382
5499	25.6365	0	300	22.1186	0	294.047	17.8958	24.3809	19.1785	24.3809	24.3809	24.3809	24.3809
5500	25.6323	0	300	22.1178	0	294	17.8956	24.3797	19.1782	24.3797	24.3797	24.3797	24.3797
5501	25.6282	0	300	22.117	0	293.954	17.8955	24.3786	19.1779	24.3786	24.3786	24.3786	24.3786
5502	25.6241	0	300	22.1163	0	293.908	17.8954	24.3774	19.1776	24.3774	24.3774	24.3774	24.3774
5503	25.6201	0	300	22.1155	0	293.862	17.8953	24.3763	19.1773	24.3763	24.3763	24.3763	24.3763
5504	25.616	0	300	22.1147	0	293.817	17.8952	24.3752	19.1769	24.3752	24.3752	24.3752	24.3752
5505	25.6119	0	300	22.114	0	293.772	17.8951	24.3741	19.1766	24.3741	24.3741	24.3741	24.3741
5506	25.6079	0	300	22.1132	0	293.728	17.895	24.373	19.1763	24.373	24.373	24.373	24.373
5507	25.6039	0	300	22.1125	0	293.684	17.8949	24.3719	19.176	24.3719	24.3719	24.3719	24.3719
5508	25.5999	0	300	22.1118	0	293.641	17.8948	24.3708	19.1757	24.3708	24.3708	24.3708	24.3708
5509	25.5959	0	300	22.111	0	293.598	17.8947	24.3698	19.1754	24.3698	24.3698	24.3698	24.3698
5510	25.5919	0	300	22.1103	0	293.555	17.8946	24.3687	19.1751	24.3687	24.3687	24.3687	24.3687
5511	25.5879	0	300	22.1096	0	293.513	17.8945	24.3677	19.1748	24.3677	24.3677	24.3677	24.3677
5512	25.5839	0	300	22.1089	0	293.472	17.8944	24.3667	19.1745	24.3667	24.3667	24.3667	24.3667
5513	25.58	0	300	22.1082	0	293.43	17.8943	24.3656	19.1742	24.3656	24.3656	24.3656	24.3656
5514	25.5761	0	300	22.1075	0	293.39	17.8942	24.3646	19.174	24.3646	24.3646	24.3646	24.3646
5515	25.5721	0	300	22.1068	0	293.349	17.8941	24.3636	19.1737	24.3636	24.3636	24.3636	24.3636
5516	25.5682	0	300	22.1061	0	293.309	17.894	24.3627	19.1734	24.3627	24.3627	24.3627	24.3627
5517	25.5643	0	300	22.1055	0	293.27	17.8939	24.3617	19.1731	24.3617	24.3617	24.3617	24.3617
5518	25.5604	0	300	22.1048	0	293.231	17.8938	24.3607	19.1728	24.3607	24.3607	24.3607	24.3607
5519	25.5566	0	300	22.1042	0	293.192	17.8937	24.3598	19.1726	24.3598	24.3598	24.3598	24.3598
5520	25.5527	0	300	22.1035	0	293.153	17.8936	24.3588	19.1723	24.3588	24.3588	24.3588	24.3588
5521	25.5489	0	300	22.1029	0	293.115	17.8935	24.3579	19.172	24.3579	24.3579	24.3579	24.3579
5522	25.545	0	300	22.1022	0	293.078	17.8934	24.3569	19.1718	24.3569	24.3569	24.3569	24.3569
5523	25.5412	0	300	22.1016	0	293.04	17.8933	24.356	19.1715	24.356	24.356	24.356	24.356
5524	25.5374	0	300	22.101	0	293.003	17.8932	24.3551	19.1713	24.3551	24.3551	24.3551	24.3551
5525	25.5336	0	300	22.1004	0	292.967	17.8931	24.3542	19.171	24.3542	24.3542	24.3542	24.3542
5526	25.5298	0	300	22.0998	0	292.931	17.893	24.3533	19.1708	24.3533	24.3533	24.3533	24.3533
5527	25.5261	0	300	22.0992	0	292.895	17.8929	24.3524	19.1705	24.3524	24.3524	24.3524	24.3524
5528	25.5223	0	300	22.0985	0	292.86	17.8929	24.3516	19.1702	24.3516	24.3516	24.3516	24.3516
5529	25.5186	0	300	22.098	0	292.825	17.8928	24.3507	19.17	24.3507	24.3507	24.3507	24.3507
5530	25.5148	0	300	22.0974	0	292.79	17.8927	24.3498	19.1698	24.3498	24.3498	24.3498	24.3498
5531	25.5111	0	300	22.0968	0	292.756	17.8926	24.349	19.1695	24.349	24.349	24.349	24.349
5532	25.5074	0	300	22.0962	0	292.722	17.8925	24.3482	19.1693	24.3482	24.3482	24.3482	24.3482
5533	25.5037	0	300	22.0956	0	292.688	17.8925	24.3473	19.169	24.3473	24.3473	24.3473	24.3473
5534	25.5	0	300	22.0951	0	292.655	17.8924	24.3465	19.1688	24.3465	24.3465	24.3465	24.3465
5535	25.4964	0	300	22.0945	0	292.622	17.8923	24.3457	19.1686	24.3457	24.3457	24.3457	24.3457
5536	25.4927	0	300	22.094	0	292.589	17.8922	24.3449	19.1684	24.3449	24.3449	24.3449	24.3449
5537	25.4891	0	300	22.0934	0	292.557	17.8921	24.3441	19.1681	24.3441	24.3441	24.3441	24.3441
5538	25.4854	0	300	22.0929	0	292.525	17.8921	24.3433	19.1679	24.3433	24.3433	24.3433	24.3433
5539	25.4818	0	300	22.0923	0	292.493	17.892	24.3425	19.1677	24.3425	24.3425	24.3425	24.3425
5540	25.4782	0	300	22.0918	0	292.462	17.8919	24.3418	19.1675	24.3418	24.3418	24.3418	24.3418
5541	25.4746	0	300	22.0913	0	292.43	17.8918	24.341	19.1673	24.341	24.341	24.341	24.341
5542	25.471	0	300	22.0908	0	292.4	17.8917	24.3402	19.167	24.3402	24.3402	24.3402	24.3402
5543	25.4674	0	300	22.0903	0	292.369	17.8917	24.3395	19.1668	24.3395	24.3395	24.3395	24.3395
5544	25.4639	0	300	22.0898	0	292.339	17.8916	24.3387	19.1666	24.3387	24.3387	24.3387	24.3387
5545	25.4603	0	300	22.0892	0	292.309	17.8915	24.338	19.1664	24.338	24.338	24.338	24.338
5546	25.4568	0	300	22.0888	0	292.28	17.8914	24.3373	19.1662	24.3373	24.3373	24.3373	24.3373
5547	25.4532	0	300	22.0883	0	292.251	17.8914	24.3365	19.166	24.3365	24.3365	24.3365	24.3365
5548	25.4497	0	300	22.0878	0	292.222	17.8913	24.3358	19.1658	24.3358	24.3358	24.3358	24.3358
5549	25.4462	0	300	22.0873	0	292.193	17.8912	24.3351	19.1656	24.3351	24.3351	24.3351	24.3351
5550	25.4427	0	300	22.0868	0	292.165	17.8912	24.3344	19.1654	24.3344	24.3344	24.3344	24.3344
5551	25.4392	0	300	22.0863	0	292.137	17.8911	24.3337	19.1652	24.3337	24.3337	24.3337	24.3337
5552	25.4358	0	300	22.0859	0	292.109	17.891	24.3331	19.165	24.3331	24.3331	24.3331	24.3331
5553	25.4323	0	300	22.0854	0	292.082	17.891	24.3324	19.1648	24.3324	24.3324	24.3324	24.3324
5554	25.4289	0	300	22.0849	0	292.054	17.8909	24.3317	19.1646	24.3317	24.3317	24.3317	24.3317
5555	25.4254	0	300	22.0845	0	292.027	17.8908	24.331	19.1644	24.331	24.331	24.331	24.331
5556	25.422	0	300	22.084	0	292.001	17.8908	24.3304	19.1642	24.3304	24.3304	24.3304	24.3304
5557	25.4186	0	300	22.0836	0	291.974	17.8907	24.3297	19.1641	24.3297	24.3297	24.3297	24.3297
5558	25.4152	0	300	22.0831	0	291.948	17.8907	24.3291	19.1639	24.3291	24.3291	24.3291	24.3291
5559	25.4118	0	300	22.0827	0	291.922	17.8906	24.3285	19.1637	24.3285	24.3285	24.3285	24.3285
5560	25.4084	0	300	22.0823	0	291.897	17.8905	24.3278	19.1635	24.3278	24.3278	24.3278	24.3278
5561	25.405	0	300	22.0818	0	291.871	17.8905	24.3272	19.1634	24.3272	24.3272	24.3272	24.3272
5562	25.4017	0	300	22.0814	0	291.846	17.8904	24.3266	19.1632	24.3266	24.3266	24.3266	24.3266
5563	25.3983	0	300	22.081	0	291.821	17.8903	24.326	19.163	24.326	24.326	24.326	24.326
5564	25.395	0	300	22.0806	0	291.797	17.8903	24.3254	19.1628	24.3254	24.3254	24.3254	24.3254
5565	25.3917	0	300	22.0802	0	291.772	17.8902	24.3248	19.1627	24.3248	24.3248	24.3248	24.3248
5566	25.3883	0	300	22.0798	0	291.748	17.8902	24.3242	19.1625	24.3242	24.3242	24.3242	24.3242
5567	25.385	0	300	22.0794	0	291.724	17.8901	24.3236	19.1623	24.3236	24.3236	24.3236	24.3236
5568	25.3818	0	300	22.079	0	291.701	17.89	24.323	19.1622	24.323	24.323	24.323	24.323
5569	25.3785	0	300	22.0786	0	291.677	17.89	24.3224	19.162	24.3224	24.3224	24.3224	24.3224
5570	25.3752	0	300	22.0782	0	291.654	17.8899	24.3218	19.1618	24.3218	24.3218	24.3218	24.3218
5571	25.3719	0	300	22.0778	0	291.631	17.8899	24.3213	19.1617	24.3213	24.3213	24.3213	24.3213
5572	25.3687	0	300	22.0774	0	291.609	17.8898	24.3207	19.1615	24.3207	24.3207	24.3207	24.3207
5573	25.3654	0	300	22.077	0	291.586	17.8898	24.3202	19.1614	24.3202	24.3202	24.3202	24.3202
5574	25.3622	0	300	22.0767	0	291.564	17.8897	24.3196	19.1612	24.3196	24.3196	24.3196	24.3196
5575	25.359	0	300	22.0763	0	291.542	17.8897	24.3191	19.161	24.3191	24.3191	24.3191	24.3191
5576	25.3558	0	300	22.0759	0	291.52	17.8896	24.3185	19.1609	24.3185	24.3185	24.3185	24.3185
5577	25.3526	0	300	22.0755	0	291.498	17.8895	24.318	19.1608	24.318	24.318	24.318	24.318
5578	25.3494	0	300	22.0752	0	291.477	17.8895	24.3175	19.1606	24.3175	24.3175	24.3175	24.3175
5579	25.3462	0	300	22.0748	0	291.456	17.8895	24.3169	19.1605	24.3169	24.3169	24.3169	24.3169
5580	25.3431	0	300	22.0745	0	291.435	17.8894	24.3164	19.1603	24.3164	24.3164	24.3164	24.3164
5581	25.3399	0	300	22.0741	0	291.414	17.8894	24.3159	19.1602	24.3159	24.3159	24.3159	24.3159
5582	25.3368	0	300	22.0738	0	291.394	17.8893	24.3154	19.16	24.3154	24.3154	24.3154	24.3154
5583	25.3336	0	300	22.0734	0	291.374	17.8893	24.3149	19.1599	24.3149	24.3149	24.3149	24.3149
5584	25.3305	0	300	22.0731	0	291.353	17.8892	24.3144	19.1597	24.3144	24.3144	24.3144	24.3144
5585	25.3274	0	300	22.0728	0	291.334	17.8892	24.3139	19.1596	24.3139	24.3139	24.3139	24.3139
5586	25.3243	0	300	22.0724	0	291.314	17.8891	24.3134	19.1595	24.3134	24.3134	24.3134	24.3134
5587	25.3212	0	300	22.0721	0	291.294	17.8891	24.313	19.1593	24.313	24.313	24.313	24.313
5588	25.3181	0	300	22.0718	0	291.275	17.889	24.3125	19.1592	24.3125	24.3125	24.3125	24.3125
5589	25.315	0	300	22.0715	0	291.256	17.889	24.312	19.1591	24.312	24.312	24.312	24.312
5590	25.312	0	300	22.0711	0	291.237	17.8889	24.3116	19.1589	24.3116	24.3116	24.3116	24.3116
5591	25.3089	0	300	22.0708	0	291.218	17.8889	24.3111	19.1588	24.3111	24.3111	24.3111	24.3111
5592	25.3059	0	300	22.0705	0	291.2	17.8888	24.3106	19.1587	24.3106	24.3106	24.3106	24.3106
5593	25.3029	0	300	22.0702	0	291.182	17.8888	24.3102	19.1585	24.3102	24.3102	24.3102	24.3102
5594	25.2998	0	300	22.0699	0	291.163	17.8887	24.3097	19.1584	24.3097	24.3097	24.3097	24.3097
5595	25.2968	0	300	22.0696	0	291.145	17.8887	24.3093	19.1583	24.3093	24.3093	24.3093	24.3093
5596	25.2938	0	300	22.0693	0	291.128	17.8886	24.3089	19.1582	24.3089	24.3089	24.3089	24.3089
5597	25.2908	0	300	22.069	0	291.11	17.8886	24.3084	19.158	24.3084	24.3084	24.3084	24.3084
5598	25.2878	0	300	22.0687	0	291.093	17.8886	24.308	19.1579	24.308	24.308	24.308	24.308
5599	25.2849	0	300	22.0684	0	291.075	17.8885	24.3076	19.1578	24.3076	24.3076	24.3076	24.3076
5600	25.2819	0	300	22.0681	0	291.058	17.8885	24.3071	19.1577	24.3071	24.3071	24.3071	24.3071
5601	25.2789	0	300	22.0678	0	291.041	17.8884	24.3067	19.1576	24.3067	24.3067	24.3067	24.3067
5602	25.276	0	300	22.0675	0	291.025	17.8884	24.3063	19.1574	24.3063	24.3063	24.3063	24.3063
5603	25.2731	0	300	22.0673	0	291.008	17.8884	24.3059	19.1573	24.3059	24.3059	24.3059	24.3059
5604	25.2702	0	300	22.067	0	290.992	17.8883	24.3055	19.1572	24.3055	24.3055	24.3055	24.3055
5605	25.2672	0	300	22.0667	0	290.975	17.8883	24.3051	19.1571	24.3051	24.3051	24.3051	24.3051
5606	25.2643	0	300	22.0664	0	290.959	17.8882	24.3047	19.157	24.3047	24.3047	24.3047	24.3047
5607	25.2614	0	300	22.0662	0	290.943	17.8882	24.3043	19.1569	24.3043	24.3043	24.3043	24.3043
5608	25.2585	0	300	22.0659	0	290.928	17.8882	24.3039	19.1568	24.3039	24.3039	24.3039	24.3039
5609	25.2557	0	300	22.0656	0	290.912	17.8881	24.3035	19.1566	24.3035	24.3035	24.3035	24.3035
5610	25.2528	0	300	22.0654	0	290.897	17.8881	24.3032	19.1565	24.3032	24.3032	24.3032	24.3032
5611	25.2499	0	300	22.0651	0	290.881	17.888	24.3028	19.1564	24.3028	24.3028	24.3028	24.3028
5612	25.2471	0	300	22.0649	0	290.866	17.888	24.3024	19.1563	24.3024	24.3024	24.3024	24.3024
5613	25.2443	0	300	22.0646	0	290.851	17.888	24.302	19.1562	24.302	24.302	24.302	24.302
5614	25.2414	0	300	22.0644	0	290.836	17.8879	24.3017	19.1561	24.3017	24.3017	24.3017	24.3017
5615	25.2386	0	300	22.0641	0	290.822	17.8879	24.3013	19.156	24.3013	24.3013	24.3013	24.3013
5616	25.2358	0	300	22.0639	0	290.807	17.8879	24.301	19.1559	24.301	24.301	24.301	24.301
5617	25.233	0	300	22.0636	0	290.793	17.8878	24.3006	19.1558	24.3006	24.3006	24.3006	24.3006
5618	25.2302	0	300	22.0634	0	290.778	17.8878	24.3002	19.1557	24.3002	24.3002	24.3002	24.3002
5619	25.2274	0	300	22.0632	0	290.764	17.8878	24.2999	19.1556	24.2999	24.2999	24.2999	24.2999
5620	25.2246	0	300	22.0629	0	290.75	17.8877	24.2995	19.1555	24.2995	24.2995	24.2995	24.2995
5621	25.2219	0	300	22.0627	0	290.737	17.8877	24.2992	19.1554	24.2992	24.2992	24.2992	24.2992
5622	25.2191	0	300	22.0624	0	290.723	17.8877	24.2989	19.1553	24.2989	24.2989	24.2989	24.2989
5623	25.2164	0	300	22.0622	0	290.709	17.8876	24.2985	19.1552	24.2985	24.2985	24.2985	24.2985
5624	25.2136	0	300	22.062	0	290.696	17.8876	24.2982	19.1551	24.2982	24.2982	24.2982	24.2982
5625	25.2109	0	300	22.0618	0	290.683	17.8876	24.2979	19.155	24.2979	24.2979	24.2979	24.2979
5626	25.2082	0	300	22.0616	0	290.67	17.8875	24.2976	19.155	24.2976	24.2976	24.2976	24.2976
5627	25.2055	0	300	22.0613	0	290.656	17.8875	24.2972	19.1549	24.2972	24.2972	24.2972	24.2972
5628	25.2028	0	300	22.0611	0	290.644	17.8875	24.2969	19.1548	24.2969	24.2969	24.2969	24.2969
5629	25.2001	0	300	22.0609	0	290.631	17.8874	24.2966	19.1547	24.2966	24.2966	24.2966	24.2966
5630	25.1974	0	300	22.0607	0	290.618	17.8874	24.2963	19.1546	24.2963	24.2963	24.2963	24.2963
5631	25.1947	0	300	22.0605	0	290.606	17.8874	24.296	19.1545	24.296	24.296	24.296	24.296
5632	25.192	0	300	22.0603	0	290.594	17.8874	24.2957	19.1544	24.2957	24.2957	24.2957	24.2957
5633	25.1894	0	300	22.0601	0	290.581	17.8873	24.2954	19.1544	24.2954	24.2954	24.2954	24.2954
5634	25.1867	0	300	22.0599	0	290.569	17.8873	24.2951	19.1543	24.2951	24.2951	24.2951	24.2951
5635	25.1841	0	300	22.0597	0	290.557	17.8873	24.2948	19.1542	24.2948	24.2948	24.2948	24.2948
5636	25.1815	0	300	22.0594	0	290.545	17.8872	24.2945	19.1541	24.2945	24.2945	24.2945	24.2945
5637	25.1788	0	300	22.0592	0	290.534	17.8872	24.2942	19.154	24.2942	24.2942	24.2942	24.2942
5638	25.1762	0	300	22.059	0	290.522	17.8872	24.2939	19.1539	24.2939	24.2939	24.2939	24.2939
5639	25.1736	0	300	22.0589	0	290.51	17.8871	24.2936	19.1538	24.2936	24.2936	24.2936	24.2936
5640	25.171	0	300	22.0587	0	290.499	17.8871	24.2934	19.1538	24.2934	24.2934	24.2934	24.2934
5641	25.1684	0	300	22.0585	0	290.488	17.8871	24.2931	19.1537	24.2931	24.2931	24.2931	24.2931
5642	25.1658	0	300	22.0583	0	290.476	17.8871	24.2928	19.1536	24.2928	24.2928	24.2928	24.2928
5643	25.1633	0	300	22.0581	0	290.465	17.887	24.2925	19.1535	24.2925	24.2925	24.2925	24.2925
5644	25.1607	0	300	22.0579	0	290.454	17.887	24.2923	19.1535	24.2923	24.2923	24.2923	24.2923
5645	25.1582	0	300	22.0577	0	290.444	17.887	24.292	19.1534	24.292	24.292	24.292	24.292
5646	25.1556	0	300	22.0575	0	290.433	17.8869	24.2917	19.1533	24.2917	24.2917	24.2917	24.2917
5647	25.1531	0	300	22.0574	0	290.422	17.8869	24.2915	19.1532	24.2915	24.2915	24.2915	24.2915
5648	25.1505	0	300	22.0572	0	290.412	17.8869	24.2912	19.1532	24.2912	24.2912	24.2912	24.2912
5649	25.148	0	300	22.057	0	290.401	17.8869	24.2909	19.1531	24.2909	24.2909	24.2909	24.2909
5650	25.1455	0	300	22.0568	0	290.391	17.8868	24.2907	19.153	24.2907	24.2907	24.2907	24.2907
5651	25.143	0	300	22.0567	0	290.381	17.8868	24.2904	19.153	24.2904	24.2904	24.2904	24.2904
5652	25.1405	0	300	22.0565	0	290.371	17.8868	24.2902	19.1529	24.2902	24.2902	24.2902	24.2902
5653	25.138	0	300	22.0563	0	290.361	17.8868	24.29	19.1528	24.29	24.29	24.29	24.29
5654	25.1355	0	300	22.0562	0	290.351	17.8868	24.2897	19.1527	24.2897	24.2897	24.2897	24.2897
5655	25.1331	0	300	22.056	0	290.341	17.8867	24.2895	19.1527	24.2895	24.2895	24.2895	24.2895
5656	25.1306	0	300	22.0558	0	290.331	17.8867	24.2892	19.1526	24.2892	24.2892	24.2892	24.2892
5657	25.1281	0	300	22.0557	0	290.322	17.8867	24.289	19.1525	24.289	24.289	24.289	24.289
5658	25.1257	0	300	22.0555	0	290.312	17.8867	24.2888	19.1525	24.2888	24.2888	24.2888	24.2888
5659	25.1232	0	300	22.0554	0	290.303	17.8866	24.2885	19.1524	24.2885	24.2885	24.2885	24.2885
5660	25.1208	0	300	22.0552	0	290.294	17.8866	24.2883	19.1523	24.2883	24.2883	24.2883	24.2883
5661	25.1184	0	300	22.055	0	290.284	17.8866	24.2881	19.1523	24.2881	24.2881	24.2881	24.2881
5662	25.116	0	300	22.0549	0	290.275	17.8866	24.2878	19.1522	24.2878	24.2878	24.2878	24.2878
5663	25.1136	0	300	22.0547	0	290.266	17.8865	24.2876	19.1521	24.2876	24.2876	24.2876	24.2876
5664	25.1112	0	300	22.0546	0	290.257	17.8865	24.2874	19.1521	24.2874	24.2874	24.2874	24.2874
5665	25.1088	0	300	22.0544	0	290.248	17.8865	24.2872	19.152	24.2872	24.2872	24.2872	24.2872
5666	25.1064	0	300	22.0543	0	290.24	17.8865	24.287	19.152	24.287	24.287	24.287	24.287
5667	25.104	0	300	22.0541	0	290.231	17.8865	24.2868	19.1519	24.2868	24.2868	24.2868	24.2868
5668	25.1016	0	300	22.054	0	290.222	17.8864	24.2865	19.1518	24.2865	24.2865	24.2865	24.2865
5669	25.0993	0	300	22.0539	0	290.214	17.8864	24.2863	19.1518	24.2863	24.2863	24.2863	24.2863
5670	25.0969	0	300	22.0537	0	290.205	17.8864	24.2861	19.1517	24.2861	24.2861	24.2861	24.2861
5671	25.0946	0	300	22.0536	0	290.197	17.8864	24.2859	19.1517	24.2859	24.2859	24.2859	24.2859
5672	25.0922	0	300	22.0534	0	290.189	17.8864	24.2857	19.1516	24.2857	24.2857	24.2857	24.2857
5673	25.0899	0	300	22.0533	0	290.181	17.8863	24.2855	19.1516	24.2855	24.2855	24.2855	24.2855
5674	25.0876	0	300	22.0531	0	290.173	17.8863	24.2853	19.1515	24.2853	24.2853	24.2853	24.2853
5675	25.0853	0	300	22.053	0	290.165	17.8863	24.2851	19.1514	24.2851	24.2851	24.2851	24.2851
5676	25.083	0	300	22.0529	0	290.157	17.8863	24.2849	19.1514	24.2849	24.2849	24.2849	24.2849
5677	25.0807	0	300	22.0527	0	290.149	17.8863	24.2847	19.1513	24.2847	24.2847	24.2847	24.2847
5678	25.0784	0	300	22.0526	0	290.141	17.8862	24.2845	19.1513	24.2845	24.2845	24.2845	24.2845
5679	25.0761	0	300	22.0525	0	290.134	17.8862	24.2843	19.1512	24.2843	24.2843	24.2843	24.2843
5680	25.0738	0	300	22.0524	0	290.126	17.8862	24.2842	19.1512	24.2842	24.2842	24.2842	24.2842
5681	25.0715	0	300	22.0522	0	290.118	17.8862	24.284	19.1511	24.284	24.284	24.284	24.284
5682	25.0693	0	300	22.0521	0	290.111	17.8862	24.2838	19.1511	24.2838	24.2838	24.2838	24.2838
5683	25.067	0	300	22.052	0	290.103	17.8862	24.2836	19.151	24.2836	24.2836	24.2836	24.2836
5684	25.0648	0	300	22.0519	0	290.096	17.8861	24.2834	19.151	24.2834	24.2834	24.2834	24.2834
5685	25.0626	0	300	22.0517	0	290.089	17.8861	24.2832	19.1509	24.2832	24.2832	24.2832	24.2832
5686	25.0603	0	300	22.0516	0	290.082	17.8861	24.2831	19.1509	24.2831	24.2831	24.2831	24.2831
5687	25.0581	0	300	22.0515	0	290.075	17.8861	24.2829	19.1508	24.2829	24.2829	24.2829	24.2829
5688	25.0559	0	300	22.0514	0	290.068	17.8861	24.2827	19.1508	24.2827	24.2827	24.2827	24.2827
5689	25.0537	0	300	22.0513	0	290.061	17.8861	24.2826	19.1507	24.2826	24.2826	24.2826	24.2826
5690	25.0515	0	300	22.0511	0	290.054	17.886	24.2824	19.1507	24.2824	24.2824	24.2824	24.2824
5691	25.0493	0	300	22.051	0	290.047	17.886	24.2822	19.1506	24.2822	24.2822	24.2822	24.2822
5692	25.0471	0	300	22.0509	0	290.04	17.886	24.282	19.1506	24.282	24.282	24.282	24.282
5693	25.0449	0	300	22.0508	0	290.034	17.886	24.2819	19.1505	24.2819	24.2819	24.2819	24.2819
5694	25.0427	0	300	22.0507	0	290.027	17.886	24.2817	19.1505	24.2817	24.2817	24.2817	24.2817
5695	25.0405	0	300	22.0506	0	290.021	17.886	24.2816	19.1504	24.2816	24.2816	24.2816	24.2816
5696	25.0384	0	300	22.0505	0	290.014	17.8859	24.2814	19.1504	24.2814	24.2814	24.2814	24.2814
5697	25.0362	0	300	22.0504	0	290.008	17.8859	24.2812	19.1503	24.2812	24.2812	24.2812	24.2812
5698	25.0341	0	300	22.0503	0	290.001	17.8859	24.2811	19.1503	24.2811	24.2811	24.2811	24.2811
5699	25.0319	0	300	22.0501	0	289.995	17.8859	24.2809	19.1502	24.2809	24.2809	24.2809	24.2809
5700	25.0298	0	300	22.05	0	289.989	17.8859	24.2808	19.1502	24.2808	24.2808	24.2808	24.2808
5701	25.0277	0	300	22.0499	0	289.983	17.8859	24.2806	19.1502	24.2806	24.2806	24.2806	24.2806
5702	25.0256	0	300	22.0498	0	289.977	17.8858	24.2805	19.1501	24.2805	24.2805	24.2805	24.2805
5703	25.0235	0	300	22.0497	0	289.971	17.8858	24.2803	19.1501	24.2803	24.2803	24.2803	24.2803
5704	25.0214	0	300	22.0496	0	289.965	17.8858	24.2802	19.15	24.2802	24.2802	24.2802	24.2802
5705	25.0193	0	300	22.0495	0	289.959	17.8858	24.28	19.15	24.28	24.28	24.28	24.28
5706	25.0172	0	300	22.0494	0	289.953	17.8858	24.2799	19.15	24.2799	24.2799	24.2799	24.2799
5707	25.0151	0	300	22.0493	0	289.947	17.8858	24.2797	19.1499	24.2797	24.2797	24.2797	24.2797
5708	25.013	0	300	22.0492	0	289.941	17.8858	24.2796	19.1499	24.2796	24.2796	24.2796	24.2796
5709	25.0109	0	300	22.0492	0	289.936	17.8857	24.2795	19.1498	24.2795	24.2795	24.2795	24.2795
5710	25.0089	0	300	22.0491	0	289.93	17.8857	24.2793	19.1498	24.2793	24.2793	24.2793	24.2793
5711	25.0068	0	300	22.049	0	289.925	17.8857	24.2792	19.1498	24.2792	24.2792	24.2792	24.2792
5712	25.0048	0	300	22.0489	0	289.919	17.8857	24.2791	19.1497	24.2791	24.2791	24.2791	24.2791
5713	25.0027	0	300	22.0488	0	289.914	17.8857	24.2789	19.1497	24.2789	24.2789	24.2789	24.2789
5714	25.0007	0	300	22.0487	0	289.908	17.8857	24.2788	19.1497	24.2788	24.2788	24.2788	24.2788
5715	24.9987	0	300	22.0486	0	289.903	17.8857	24.2786	19.1496	24.2786	24.2786	24.2786	24.2786
5716	24.9966	0	300	22.0485	0	289.898	17.8856	24.2785	19.1496	24.2785	24.2785	24.2785	24.2785
5717	24.9946	0	300	22.0484	0	289.892	17.8856	24.2784	19.1495	24.2784	24.2784	24.2784	24.2784
5718	24.9926	0	300	22.0483	0	289.887	17.8856	24.2783	19.1495	24.2783	24.2783	24.2783	24.2783
5719	24.9906	0	300	22.0482	0	289.882	17.8856	24.2781	19.1495	24.2781	24.2781	24.2781	24.2781
5720	24.9886	0	300	22.0482	0	289.877	17.8856	24.278	19.1494	24.278	24.278	24.278	24.278
5721	24.9866	0	300	22.0481	0	289.872	17.8856	24.2779	19.1494	24.2779	24.2779	24.2779	24.2779
5722	24.9846	0	300	22.048	0	289.867	17.8856	24.2778	19.1494	24.2778	24.2778	24.2778	24.2778
5723	24.9827	0	300	22.0479	0	289.862	17.8856	24.2777	19.1493	24.2777	24.2777	24.2777	24.2777
5724	24.9807	0	300	22.0478	0	289.857	17.8855	24.2775	19.1493	24.2775	24.2775	24.2775	24.2775
5725	24.9787	0	300	22.0477	0	289.852	17.8855	24.2774	19.1493	24.2774	24.2774	24.2774	24.2774
5726	24.9768	0	300	22.0477	0	289.848	17.8855	24.2773	19.1492	24.2773	24.2773	24.2773	24.2773
5727	24.9748	0	300	22.0476	0	289.843	17.8855	24.2772	19.1492	24.2772	24.2772	24.2772	24.2772
5728	24.9729	0	300	22.0475	0	289.838	17.8855	24.2771	19.1492	24.2771	24.2771	24.2771	24.2771
5729	24.9709	0	300	22.0474	0	289.834	17.8855	24.2769	19.1491	24.2769	24.2769	24.2769	24.2769
5730	24.969	0	300	22.0474	0	289.829	17.8855	24.2768	19.1491	24.2768	24.2768	24.2768	24.2768
5731	24.9671	0	300	22.0473	0	289.825	17.8855	24.2767	19.1491	24.2767	24.2767	24.2767	24.2767
5732	24.9652	0	300	22.0472	0	289.82	17.8855	24.2766	19.149	24.2766	24.2766	24.2766	24.2766
5733	24.9633	0	300	22.0471	0	289.815	17.8854	24.2765	19.149	24.2765	24.2765	24.2765	24.2765
5734	24.9613	0	300	22.047	0	289.811	17.8854	24.2764	19.149	24.2764	24.2764	24.2764	24.2764
5735	24.9595	0	300	22.047	0	289.807	17.8854	24.2763	19.1489	24.2763	24.2763	24.2763	24.2763
5736	24.9576	0	300	22.0469	0	289.802	17.8854	24.2762	19.1489	24.2762	24.2762	24.2762	24.2762
5737	24.9557	0	300	22.0468	0	289.798	17.8854	24.2761	19.1489	24.2761	24.2761	24.2761	24.2761
5738	24.9538	0	300	22.0467	0	289.794	17.8854	24.276	19.1488	24.276	24.276	24.276	24.276
5739	24.9519	0	300	22.0467	0	289.79	17.8854	24.2759	19.1488	24.2759	24.2759	24.2759	24.2759
5740	24.9501	0	300	22.0466	0	289.786	17.8854	24.2758	19.1488	24.2758	24.2758	24.2758	24.2758
5741	24.9482	0	300	22.0465	0	289.781	17.8854	24.2757	19.1488	24.2757	24.2757	24.2757	24.2757
5742	24.9463	0	300	22.0465	0	289.777	17.8854	24.2756	19.1487	24.2756	24.2756	24.2756	24.2756
5743	24.9445	0	300	22.0464	0	289.773	17.8853	24.2755	19.1487	24.2755	24.2755	24.2755	24.2755
5744	24.9426	0	300	22.0463	0	289.769	17.8853	24.2754	19.1487	24.2754	24.2754	24.2754	24.2754
5745	24.9408	0	300	22.0463	0	289.765	17.8853	24.2753	19.1486	24.2753	24.2753	24.2753	24.2753
5746	24.939	0	300	22.0462	0	289.762	17.8853	24.2752	19.1486	24.2752	24.2752	24.2752	24.2752
5747	24.9371	0	300	22.0461	0	289.758	17.8853	24.2751	19.1486	24.2751	24.2751	24.2751	24.2751
5748	24.9353	0	300	22.0461	0	289.754	17.8853	24.275	19.1486	24.275	24.275	24.275	24.275
5749	24.9335	0	300	22.046	0	289.75	17.8853	24.2749	19.1485	24.2749	24.2749	24.2749	24.2749
5750	24.9317	0	300	22.046	0	289.746	17.8853	24.2748	19.1485	24.2748	24.2748	24.2748	24.2748
5751	24.9299	0	300	22.0459	0	289.743	17.8853	24.2747	19.1485	24.2747	24.2747	24.2747	24.2747
5752	24.9281	0	300	22.0458	0	289.739	17.8853	24.2746	19.1485	24.2746	24.2746	24.2746	24.2746
5753	24.9263	0	300	22.0458	0	289.735	17.8853	24.2745	19.1484	24.2745	24.2745	24.2745	24.2745
5754	24.9245	0	300	22.0457	0	289.732	17.8852	24.2744	19.1484	24.2744	24.2744	24.2744	24.2744
5755	24.9227	0	300	22.0456	0	289.728	17.8852	24.2743	19.1484	24.2743	24.2743	24.2743	24.2743
5756	24.921	0	300	22.0456	0	289.725	17.8852	24.2743	19.1484	24.2743	24.2743	24.2743	24.2743
5757	24.9192	0	300	22.0455	0	289.721	17.8852	24.2742	19.1483	24.2742	24.2742	24.2742	24.2742
5758	24.9174	0	300	22.0455	0	289.718	17.8852	24.2741	19.1483	24.2741	24.2741	24.2741	24.2741
5759	24.9157	0	300	22.0454	0	289.714	17.8852	24.274	19.1483	24.274	24.274	24.274	24.274
5760	24.9139	0	300	22.0453	0	289.711	17.8852	24.2739	19.1483	24.2739	24.2739	24.2739	24.2739
5761	24.9122	0	300	22.0453	0	289.708	17.8852	24.2738	19.1483	24.2738	24.2738	24.2738	24.2738
5762	24.9105	0	300	22.0452	0	289.704	17.8852	24.2738	19.1482	24.2738	24.2738	24.2738	24.2738
5763	24.9087	0	300	22.0452	0	289.701	17.8852	24.2737	19.1482	24.2737	24.2737	24.2737	24.2737
5764	24.907	0	300	22.0451	0	289.698	17.8852	24.2736	19.1482	24.2736	24.2736	24.2736	24.2736
5765	24.9053	0	300	22.0451	0	289.695	17.8852	24.2735	19.1482	24.2735	24.2735	24.2735	24.2735
5766	24.9036	0	300	22.045	0	289.691	17.8851	24.2734	19.1481	24.2734	24.2734	24.2734	24.2734
5767	24.9018	0	300	22.045	0	289.688	17.8851	24.2734	19.1481	24.2734	24.2734	24.2734	24.2734
5768	24.9002	0	300	22.0449	0	289.685	17.8851	24.2733	19.1481	24.2733	24.2733	24.2733	24.2733
5769	24.8985	0	300	22.0449	0	289.682	17.8851	24.2732	19.1481	24.2732	24.2732	24.2732	24.2732
5770	24.8968	0	300	22.0448	0	289.679	17.8851	24.2731	19.1481	24.2731	24.2731	24.2731	24.2731
5771	24.8951	0	300	22.0448	0	289.676	17.8851	24.2731	19.148	24.2731	24.2731	24.2731	24.2731
5772	24.8934	0	300	22.0447	0	289.673	17.8851	24.273	19.148	24.273	24.273	24.273	24.273
5773	24.8917	0	300	22.0447	0	289.67	17.8851	24.2729	19.148	24.2729	24.2729	24.2729	24.2729
5774	24.89	0	300	22.0446	0	289.667	17.8851	24.2728	19.148	24.2728	24.2728	24.2728	24.2728
5775	24.8884	0	300	22.0446	0	289.664	17.8851	24.2728	19.1479	24.2728	24.2728	24.2728	24.2728
5776	24.8867	0	300	22.0445	0	289.661	17.8851	24.2727	19.1479	24.2727	24.2727	24.2727	24.2727
5777	24.8851	0	300	22.0445	0	289.658	17.8851	24.2726	19.1479	24.2726	24.2726	24.2726	24.2726
5778	24.8834	0	300	22.0444	0	289.656	17.8851	24.2726	19.1479	24.2726	24.2726	24.2726	24.2726
5779	24.8818	0	300	22.0444	0	289.653	17.885	24.2725	19.1479	24.2725	24.2725	24.2725	24.2725
5780	24.8801	0	300	22.0443	0	289.65	17.885	24.2724	19.1478	24.2724	24.2724	24.2724	24.2724
5781	24.8785	0	300	22.0443	0	289.647	17.885	24.2723	19.1478	24.2723	24.2723	24.2723	24.2723
5782	24.8769	0	300	22.0442	0	289.645	17.885	24.2723	19.1478	24.2723	24.2723	24.2723	24.2723
5783	24.8753	0	300	22.0442	0	289.642	17.885	24.2722	19.1478	24.2722	24.2722	24.2722	24.2722
5784	24.8736	0	300	22.0441	0	289.639	17.885	24.2721	19.1478	24.2721	24.2721	24.2721	24.2721
5785	24.872	0	300	22.0441	0	289.637	17.885	24.2721	19.1477	24.2721	24.2721	24.2721	24.2721
5786	24.8704	0	300	22.044	0	289.634	17.885	24.272	19.1477	24.272	24.272	24.272	24.272
5787	24.8688	0	300	22.044	0	289.631	17.885	24.272	19.1477	24.272	24.272	24.272	24.272
5788	24.8672	0	300	22.044	0	289.629	17.885	24.2719	19.1477	24.2719	24.2719	24.2719	24.2719
5789	24.8656	0	300	22.0439	0	289.626	17.885	24.2718	19.1477	24.2718	24.2718	24.2718	24.2718
5790	24.864	0	300	22.0439	0	289.624	17.885	24.2718	19.1477	24.2718	24.2718	24.2718	24.2718
5791	24.8625	0	300	22.0438	0	289.621	17.885	24.2717	19.1476	24.2717	24.2717	24.2717	24.2717
5792	24.8609	0	300	22.0438	0	289.619	17.885	24.2717	19.1476	24.2717	24.2717	24.2717	24.2717
5793	24.8593	0	300	22.0438	0	289.616	17.885	24.2716	19.1476	24.2716	24.2716	24.2716	24.2716
5794	24.8577	0	300	22.0437	0	289.614	17.885	24.2715	19.1476	24.2715	24.2715	24.2715	24.2715
5795	24.8562	0	300	22.0437	0	289.612	17.8849	24.2715	19.1476	24.2715	24.2715	24.2715	24.2715
5796	24.8546	0	300	22.0436	0	289.609	17.8849	24.2714	19.1476	24.2714	24.2714	24.2714	24.2714
5797	24.8531	0	300	22.0436	0	289.607	17.8849	24.2714	19.1475	24.2714	24.2714	24.2714	24.2714
5798	24.8515	0	300	22.0436	0	289.605	17.8849	24.2713	19.1475	24.2713	24.2713	24.2713	24.2713
5799	24.85	0	300	22.0435	0	289.603	17.8849	24.2712	19.1475	24.2712	24.2712	24.2712	24.2712
5800	24.8485	0	300	22.0435	0	289.6	17.8849	24.2712	19.1475	24.2712	24.2712	24.2712	24.2712
5801	24.8469	0	300	22.0434	0	289.598	17.8849	24.2711	19.1475	24.2711	24.2711	24.2711	24.2711
5802	24.8454	0	300	22.0434	0	289.596	17.8849	24.2711	19.1475	24.2711	24.2711	24.2711	24.2711
5803	24.8439	0	300	22.0434	0	289.594	17.8849	24.271	19.1474	24.271	24.271	24.271	24.271
5804	24.8424	0	300	22.0433	0	289.591	17.8849	24.271	19.1474	24.271	24.271	24.271	24.271
5805	24.8409	0	300	22.0433	0	289.589	17.8849	24.2709	19.1474	24.2709	24.2709	24.2709	24.2709
5806	24.8394	0	300	22.0433	0	289.587	17.8849	24.2709	19.1474	24.2709	24.2709	24.2709	24.2709
5807	24.8379	0	300	22.0432	0	289.585	17.8849	24.2708	19.1474	24.2708	24.2708	24.2708	24.2708
5808	24.8364	0	300	22.0432	0	289.583	17.8849	24.2708	19.1474	24.2708	24.2708	24.2708	24.2708
5809	24.8349	0	300	22.0431	0	289.581	17.8847	24.2707	19.1473	24.2707	24.2707	24.2707	24.2707
5810	24.833	0	300	22.0428	0	289.575	17.8839	24.2705	19.1472	24.2705	24.2705	24.2705	24.2705
5811	24.8299	0	300	22.0414	0	289.553	17.882	24.2694	19.1466	24.2694	24.2694	24.2694	24.2694
5812	24.8249	0	300	22.0386	0	289.488	17.879	24.2666	19.1452	24.2666	24.2666	24.2666	24.2666
5813	24.8175	0	300	22.0339	0	289.364	17.875	24.2618	19.1427	24.2618	24.2618	24.2618	24.2618
5814	24.8072	0	300	22.0272	0	289.164	17.87	24.2545	19.1391	24.2545	24.2545	24.2545	24.2545
5815	24.794	0	300	22.0184	0	288.867	17.8643	24.2443	19.1342	24.2443	24.2443	24.2443	24.2443
5816	24.7777	0	300	22.0074	0	288.472	17.8578	24.2311	19.1282	24.2311	24.2311	24.2311	24.2311
5817	24.7583	0	300	21.9943	0	287.977	17.8506	24.2151	19.1211	24.2151	24.2151	24.2151	24.2151
5818	24.7357	0	300	21.979	0	287.375	17.8428	24.1961	19.1129	24.1961	24.1961	24.1961	24.1961
5819	24.7099	0	300	21.9617	0	286.664	17.8345	24.1741	19.1037	24.1741	24.1741	24.1741	24.1741
5820	24.6809	0	300	21.9422	0	285.843	17.8257	24.1492	19.0935	24.1492	24.1492	24.1492	24.1492
5821	24.6488	0	300	21.9207	0	284.911	17.8164	24.1214	19.0824	24.1214	24.1214	24.1214	24.1214
5822	24.6135	0	300	21.8972	0	283.867	17.8067	24.0907	19.0703	24.0907	24.0907	24.0907	24.0907
5823	24.575	0	300	21.8716	0	282.712	17.7966	24.0571	19.0573	24.0571	24.0571	24.0571	24.0571
5824	24.5333	0	300	21.8441	0	281.446	17.7862	24.0207	19.0434	24.0207	24.0207	24.0207	24.0207
5825	24.4885	0	300	21.8147	0	280.069	17.7754	23.9815	19.0287	23.9815	23.9815	23.9815	23.9815
5826	24.4406	0	300	21.7833	0	278.582	17.7642	23.9395	19.0131	23.9395	23.9395	23.9395	23.9395
5827	24.3895	0	300	21.75	0	276.987	17.7528	23.8947	18.9968	23.8947	23.8947	23.8947	23.8947
5828	24.3353	0	300	21.7148	0	275.286	17.741	23.8474	18.9796	23.8474	23.8474	23.8474	23.8474
5829	24.2781	0	300	21.6778	0	273.472	17.7291	23.7971	18.9617	23.7971	23.7971	23.7971	23.7971
5830	24.2181	0	300	21.6392	0	271.553	17.7176	23.7445	18.943	23.7445	23.7445	23.7445	23.7445
5831	24.1562	0	300	21.5998	0	269.548	17.7069	23.69	18.9241	23.69	23.69	23.69	23.69
5832	24.0931	0	300	21.5601	0	267.474	17.6969	23.6344	18.9052	23.6344	23.6344	23.6344	23.6344
5833	24.0295	0	300	21.5204	0	265.357	17.6878	23.5784	18.8867	23.5784	23.5784	23.5784	23.5784
5834	23.9655	0	300	21.481	0	263.216	17.6792	23.5224	18.8685	23.5224	23.5224	23.5224	23.5224
5835	23.9015	0	300	21.442	0	261.063	17.6713	23.4666	18.8509	23.4666	23.4666	23.4666	23.4666
5836	23.8376	0	300	21.4034	0	258.906	17.6639	23.4113	18.8336	23.4113	23.4113	23.4113	23.4113
5837	23.7738	0	300	21.3653	0	256.752	17.6568	23.3564	18.8168	23.3564	23.3564	23.3564	23.3564
5838	23.7101	0	300	21.3276	0	254.605	17.6501	23.302	18.8004	23.302	23.302	23.302	23.302
5839	23.6466	0	300	21.2903	0	252.468	17.6437	23.2481	18.7842	23.2481	23.2481	23.2481	23.2481
5840	23.5833	0	300	21.2535	0	250.343	17.6376	23.1947	18.7684	23.1947	23.1947	23.1947	23.1947
5841	23.5201	0	300	21.2171	0	248.233	17.6316	23.1419	18.7529	23.1419	23.1419	23.1419	23.1419
5842	23.4572	0	300	21.181	0	246.138	17.6259	23.0896	18.7376	23.0896	23.0896	23.0896	23.0896
5843	23.3945	0	300	21.1454	0	244.06	17.6203	23.0378	18.7226	23.0378	23.0378	23.0378	23.0378
5844	23.332	0	300	21.1102	0	241.999	17.6148	22.9865	18.7078	22.9865	22.9865	22.9865	22.9865
5845	23.2697	0	300	21.0753	0	239.955	17.6095	22.9358	18.6931	22.9358	22.9358	22.9358	22.9358
5846	23.2076	0	300	21.0408	0	237.93	17.6043	22.8855	18.6787	22.8855	22.8855	22.8855	22.8855
5847	23.1457	0	300	21.0067	0	235.923	17.5992	22.8358	18.6645	22.8358	22.8358	22.8358	22.8358
5848	23.084	0	300	20.9729	0	233.934	17.5941	22.7866	18.6504	22.7866	22.7866	22.7866	22.7866
5849	23.0225	0	300	20.9394	0	231.964	17.5892	22.7379	18.6365	22.7379	22.7379	22.7379	22.7379
5850	22.9612	0	300	20.9063	0	230.013	17.5843	22.6896	18.6227	22.6896	22.6896	22.6896	22.6896
5851	22.9001	0	300	20.8736	0	228.081	17.5795	22.6419	18.6091	22.6419	22.6419	22.6419	22.6419
5852	22.8392	0	300	20.8412	0	226.168	17.5748	22.5946	18.5957	22.5946	22.5946	22.5946	22.5946
5853	22.7785	0	300	20.8091	0	224.273	17.5701	22.5478	18.5824	22.5478	22.5478	22.5478	22.5478
5854	22.718	0	300	20.7774	0	222.397	17.5654	22.5015	18.5692	22.5015	22.5015	22.5015	22.5015
5855	22.6577	0	300	20.7459	0	220.539	17.5609	22.4556	18.5562	22.4556	22.4556	22.4556	22.4556
5856	22.5976	0	300	20.7148	0	218.7	17.5563	22.4102	18.5434	22.4102	22.4102	22.4102	22.4102
5857	22.5377	0	300	20.684	0	216.879	17.5519	22.3653	18.5306	22.3653	22.3653	22.3653	22.3653
5858	22.478	0	300	20.6535	0	215.076	17.5475	22.3208	18.518	22.3208	22.3208	22.3208	22.3208
5859	22.4185	0	300	20.6234	0	213.291	17.5431	22.2768	18.5055	22.2768	22.2768	22.2768	22.2768
5860	22.3592	0	300	20.5935	0	211.524	17.5388	22.2332	18.4932	22.2332	22.2332	22.2332	22.2332
5861	22.3001	0	300	20.5639	0	209.774	17.5345	22.19	18.4809	22.19	22.19	22.19	22.19
5862	22.2412	0	300	20.5346	0	208.042	17.5303	22.1473	18.4688	22.1473	22.1473	22.1473	22.1473
5863	22.1825	0	300	20.5057	0	206.328	17.5261	22.105	18.4569	22.105	22.105	22.105	22.105
5864	22.1239	0	300	20.477	0	204.631	17.522	22.0632	18.445	22.0632	22.0632	22.0632	22.0632
5865	22.0656	0	300	20.4486	0	202.95	17.5178	22.0217	18.4333	22.0217	22.0217	22.0217	22.0217
5866	22.0074	0	300	20.4205	0	201.287	17.5138	21.9807	18.4216	21.9807	21.9807	21.9807	21.9807
5867	21.9495	0	300	20.3927	0	199.64	17.5098	21.9401	18.4102	21.9401	21.9401	21.9401	21.9401
5868	21.8917	0	300	20.3651	0	198.01	17.5058	21.8999	18.3988	21.8999	21.8999	21.8999	21.8999
5869	21.8342	0	300	20.3378	0	196.397	17.5019	21.8601	18.3875	21.8601	21.8601	21.8601	21.8601
5870	21.7768	0	300	20.3109	0	194.799	17.498	21.8207	18.3763	21.8207	21.8207	21.8207	21.8207
5871	21.7196	0	300	20.2841	0	193.218	17.4941	21.7817	18.3653	21.7817	21.7817	21.7817	21.7817
5872	21.6626	0	300	20.2577	0	191.652	17.4903	21.7431	18.3544	21.7431	21.7431	21.7431	21.7431
5873	21.6057	0	300	20.2315	0	190.102	17.4865	21.7049	18.3436	21.7049	21.7049	21.7049	21.7049
5874	21.5491	0	300	20.2056	0	188.568	17.4828	21.667	18.3328	21.667	21.667	21.667	21.667
5875	21.4927	0	300	20.1799	0	187.049	17.4791	21.6296	18.3222	21.6296	21.6296	21.6296	21.6296
5876	21.4364	0	300	20.1545	0	185.546	17.4754	21.5925	18.3117	21.5925	21.5925	21.5925	21.5925
5877	21.3803	0	300	20.1294	0	184.058	17.4718	21.5558	18.3013	21.5558	21.5558	21.5558	21.5558
5878	21.3244	0	300	20.1045	0	182.584	17.4682	21.5195	18.2911	21.5195	21.5195	21.5195	21.5195
5879	21.2687	0	300	20.0798	0	181.126	17.4647	21.4835	18.2809	21.4835	21.4835	21.4835	21.4835
5880	21.2132	0	300	20.0554	0	179.682	17.4611	21.4479	18.2708	21.4479	21.4479	21.4479	21.4479
5881	21.1578	0	300	20.0313	0	178.253	17.4577	21.4126	18.2608	21.4126	21.4126	21.4126	21.4126
5882	21.1027	0	300	20.0074	0	176.838	17.4542	21.3778	18.2509	21.3778	21.3778	21.3778	21.3778
5883	21.0477	0	300	19.9837	0	175.437	17.4508	21.3432	18.2412	21.3432	21.3432	21.3432	21.3432
5884	21.0295	0	294.503	19.9603	0	174.051	17.4474	21.309	18.2315	21.309	21.309	21.309	21.309
5885	21.0287	0	286.764	19.9371	0	172.679	17.4441	21.2752	18.2219	21.2752	21.2752	21.2752	21.2752
5886	21.028	0	279.521	19.9141	0	171.32	17.4408	21.2417	18.2124	21.2417	21.2417	21.2417	21.2417
5887	21.0273	0	272.627	19.8914	0	169.975	17.4375	21.2085	18.203	21.2085	21.2085	21.2085	21.2085
5888	21.0266	0	265.926	19.8689	0	168.644	17.4342	21.1757	18.1937	21.1757	21.1757	21.1757	21.1757
5889	21.026	0	259.401	19.8467	0	167.326	17.431	21.1432	18.1845	21.1432	21.1432	21.1432	21.1432
5890	21.0253	0	253.038	19.8246	0	166.021	17.4278	21.111	18.1754	21.111	21.111	21.111	21.111
5891	21.0247	0	246.827	19.8028	0	164.729	17.4247	21.0791	18.1664	21.0791	21.0791	21.0791	21.0791
5892	21.0241	0	240.762	19.7812	0	163.45	17.4216	21.0476	18.1575	21.0476	21.0476	21.0476	21.0476
5893	21.0235	0	234.837	19.7598	0	162.185	17.4185	21.0164	18.1486	21.0164	21.0164	21.0164	21.0164
5894	21.0229	0	229.048	19.7386	0	160.931	17.4155	20.9855	18.1399	20.9855	20.9855	20.9855	20.9855
5895	21.0223	0	223.391	19.7177	0	159.691	17.4124	20.9549	18.1312	20.9549	20.9549	20.9549	20.9549
5896	21.0218	0	217.864	19.6969	0	158.463	17.4094	20.9246	18.1227	20.9246	20.9246	20.9246	20.9246
5897	21.0212	0	212.463	19.6764	0	157.248	17.4065	20.8947	18.1142	20.8947	20.8947	20.8947	20.8947
5898	21.0207	0	207.185	19.6561	0	156.044	17.4035	20.865	18.1058	20.865	20.865	20.865	20.865
5899	21.0202	0	202.028	19.6359	0	154.853	17.4006	20.8356	18.0975	20.8356	20.8356	20.8356	20.8356
5900	21.0197	0	196.988	19.616	0	153.674	17.3978	20.8065	18.0892	20.8065	20.8065	20.8065	20.8065
5901	21.0192	0	192.063	19.5963	0	152.506	17.3949	20.7777	18.0811	20.7777	20.7777	20.7777	20.7777
5902	21.0187	0	187.25	19.5768	0	151.351	17.3921	20.7492	18.073	20.7492	20.7492	20.7492	20.7492
5903	21.0183	0	182.547	19.5574	0	150.207	17.3893	20.721	18.065	20.721	20.721	20.721	20.721
5904	21.0178	0	177.95	19.5383	0	149.075	17.3866	20.6931	18.0571	20.6931	20.6931	20.6931	20.6931
5905	21.0174	0	173.459	19.5194	0	147.953	17.3838	20.6655	18.0493	20.6655	20.6655	20.6655	20.6655
5906	21.0169	0	169.07	19.5006	0	146.844	17.3811	20.6381	18.0415	20.6381	20.6381	20.6381	20.6381
5907	21.0165	0	164.781	19.482	0	145.745	17.3785	20.611	18.0339	20.611	20.611	20.611	20.611
5908	21.0161	0	160.59	19.4637	0	144.657	17.3758	20.5842	18.0263	20.5842	20.5842	20.5842	20.5842
5909	21.0157	0	156.494	19.4455	0	143.581	17.3732	20.5576	18.0188	20.5576	20.5576	20.5576	20.5576
5910	21.0153	0	152.491	19.4275	0	142.515	17.3706	20.5313	18.0113	20.5313	20.5313	20.5313	20.5313
5911	21.0149	0	148.58	19.4096	0	141.46	17.368	20.5053	18.004	20.5053	20.5053	20.5053	20.5053
5912	21.0145	0	144.758	19.392	0	140.416	17.3655	20.4796	17.9967	20.4796	20.4796	20.4796	20.4796
5913	21.0141	0	141.023	19.3745	0	139.382	17.363	20.4541	17.9895	20.4541	20.4541	20.4541	20.4541
5914	21.0137	0	137.373	19.3573	0	138.358	17.3605	20.4288	17.9823	20.4288	20.4288	20.4288	20.4288
5915	21.0134	0	133.806	19.3401	0	137.345	17.358	20.4039	17.9752	20.4039	20.4039	20.4039	20.4039
5916	21.013	0	130.32	19.3232	0	136.342	17.3556	20.3791	17.9682	20.3791	20.3791	20.3791	20.3791
5917	21.0127	0	126.914	19.3064	0	135.35	17.3531	20.3546	17.9613	20.3546	20.3546	20.3546	20.3546
5918	21.0124	0	123.586	19.2898	0	134.367	17.3507	20.3304	17.9544	20.3304	20.3304	20.3304	20.3304
5919	21.012	0	120.333	19.2734	0	133.394	17.3484	20.3064	17.9476	20.3064	20.3064	20.3064	20.3064
6330	20.3432	0	0	17.6828	0	39.2467	17.119	17.9847	17.2904	17.9847	17.9847	17.9847	17.9847
6331	20.3421	0	0	17.6825	0	39.2316	17.119	17.9844	17.2903	17.9844	17.9844	17.9844	17.9844
6332	20.341	0	0	17.6823	0	39.2167	17.119	17.984	17.2902	17.984	17.984	17.984	17.984
6333	20.3398	0	0	17.682	0	39.2019	17.1189	17.9836	17.2901	17.9836	17.9836	17.9836	17.9836
6334	20.3387	0	0	17.6818	0	39.1873	17.1189	17.9833	17.29	17.9833	17.9833	17.9833	17.9833
6335	20.3376	0	0	17.6815	0	39.1728	17.1188	17.9829	17.2899	17.9829	17.9829	17.9829	17.9829
6336	20.3365	0	0	17.6813	0	39.1584	17.1188	17.9826	17.2898	17.9826	17.9826	17.9826	17.9826
6337	20.3354	0	0	17.6811	0	39.1442	17.1188	17.9822	17.2897	17.9822	17.9822	17.9822	17.9822
6338	20.3343	0	0	17.6808	0	39.1302	17.1187	17.9819	17.2896	17.9819	17.9819	17.9819	17.9819
6339	20.3332	0	0	17.6806	0	39.1163	17.1187	17.9815	17.2895	17.9815	17.9815	17.9815	17.9815
6340	20.3321	0	0	17.6804	0	39.1025	17.1187	17.9812	17.2894	17.9812	17.9812	17.9812	17.9812
6341	20.331	0	0	17.6801	0	39.0889	17.1186	17.9808	17.2893	17.9808	17.9808	17.9808	17.9808
6342	20.3299	0	0	17.6799	0	39.0754	17.1186	17.9805	17.2892	17.9805	17.9805	17.9805	17.9805
6343	20.3288	0	0	17.6797	0	39.062	17.1186	17.9802	17.2891	17.9802	17.9802	17.9802	17.9802
6344	20.3277	0	0	17.6794	0	39.0488	17.1185	17.9798	17.289	17.9798	17.9798	17.9798	17.9798
6345	20.3267	0	0	17.6792	0	39.0357	17.1185	17.9795	17.2889	17.9795	17.9795	17.9795	17.9795
6346	20.3256	0	0	17.679	0	39.0227	17.1185	17.9792	17.2888	17.9792	17.9792	17.9792	17.9792
6347	20.3245	0	0	17.6788	0	39.0099	17.1184	17.9789	17.2887	17.9789	17.9789	17.9789	17.9789
6348	20.3235	0	0	17.6786	0	38.9972	17.1184	17.9786	17.2887	17.9786	17.9786	17.9786	17.9786
6349	20.3224	0	0	17.6783	0	38.9846	17.1184	17.9783	17.2886	17.9783	17.9783	17.9783	17.9783
6350	20.3213	0	0	17.6781	0	38.9721	17.1183	17.978	17.2885	17.978	17.978	17.978	17.978
6351	20.3203	0	0	17.6779	0	38.9598	17.1183	17.9777	17.2884	17.9777	17.9777	17.9777	17.9777
6352	20.3192	0	0	17.6777	0	38.9476	17.1183	17.9774	17.2883	17.9774	17.9774	17.9774	17.9774
6353	20.3182	0	0	17.6775	0	38.9355	17.1183	17.9771	17.2882	17.9771	17.9771	17.9771	17.9771
6354	20.3171	0	0	17.6773	0	38.9236	17.1182	17.9768	17.2881	17.9768	17.9768	17.9768	17.9768
6355	20.3161	0	0	17.6771	0	38.9117	17.1182	17.9765	17.288	17.9765	17.9765	17.9765	17.9765
6356	20.315	0	0	17.6769	0	38.9	17.1182	17.9762	17.288	17.9762	17.9762	17.9762	17.9762
6357	20.314	0	0	17.6767	0	38.8884	17.1181	17.9759	17.2879	17.9759	17.9759	17.9759	17.9759
6358	20.313	0	0	17.6765	0	38.8769	17.1181	17.9756	17.2878	17.9756	17.9756	17.9756	17.9756
6359	20.3119	0	0	17.6763	0	38.8656	17.1181	17.9753	17.2877	17.9753	17.9753	17.9753	17.9753
6360	20.3109	0	0	17.6761	0	38.8543	17.1181	17.9751	17.2876	17.9751	17.9751	17.9751	17.9751
6535	20.1426	0	0	17.636	0	37.2381	17.0952	17.9263	17.2682	17.9263	17.9263	17.9263	17.9263
6536	20.1272	0	0	17.625	0	36.8464	17.0887	17.9133	17.2622	17.9133	17.9133	17.9133	17.9133
6537	20.1087	0	0	17.6119	0	36.3513	17.0815	17.8972	17.2551	17.8972	17.8972	17.8972	17.8972
6538	20.087	0	0	17.5966	0	35.7494	17.0737	17.8782	17.2469	17.8782	17.8782	17.8782	17.8782
6539	20.062	0	0	17.5792	0	35.0386	17.0654	17.8563	17.2377	17.8563	17.8563	17.8563	17.8563
6540	20.0339	0	0	17.5598	0	34.2174	17.0566	17.8314	17.2275	17.8314	17.8314	17.8314	17.8314
6541	20.0027	0	0	17.5383	0	33.2852	17.0473	17.8036	17.2164	17.8036	17.8036	17.8036	17.8036
6542	19.9682	0	0	17.5147	0	32.2415	17.0376	17.7729	17.2043	17.7729	17.7729	17.7729	17.7729
6543	19.9306	0	0	17.4892	0	31.0863	17.0276	17.7393	17.1913	17.7393	17.7393	17.7393	17.7393
6544	19.8898	0	0	17.4617	0	29.8199	17.0171	17.7029	17.1774	17.7029	17.7029	17.7029	17.7029
6545	19.8458	0	0	17.4322	0	28.4427	17.0063	17.6636	17.1627	17.6636	17.6636	17.6636	17.6636
6546	19.7987	0	0	17.4008	0	26.9552	16.9952	17.6216	17.1471	17.6216	17.6216	17.6216	17.6216
6547	19.7485	0	0	17.3675	0	25.358	16.9837	17.5768	17.1308	17.5768	17.5768	17.5768	17.5768
6548	19.6952	0	0	17.3324	0	23.6518	16.972	17.5293	17.1136	17.5293	17.5293	17.5293	17.5293
6549	19.6388	0	0	17.2953	0	21.8376	16.9601	17.4791	17.0956	17.4791	17.4791	17.4791	17.4791
6550	19.5796	0	0	17.2568	0	19.9188	16.9486	17.4264	17.077	17.4264	17.4264	17.4264	17.4264
6551	19.5185	0	0	17.2173	0	17.9104	16.9378	17.3718	17.058	17.3718	17.3718	17.3718	17.3718
6552	19.4563	0	0	17.1776	0	15.8368	16.9279	17.3163	17.0391	17.3163	17.3163	17.3163	17.3163
6553	19.3935	0	0	17.138	0	13.7202	16.9187	17.2602	17.0206	17.2602	17.2602	17.2602	17.2602
6554	19.3304	0	0	17.0986	0	11.579	16.9102	17.2043	17.0025	17.2043	17.2043	17.2043	17.2043
7270	10.0001	0	0	9.97575	1.43097	0	9.99651	9.9647	9.99	9.9647	9.9647	9.9647	9.9647
7271	10.0009	0	0	9.976	1.41773	0	9.99662	9.96503	9.99009	9.96503	9.96503	9.96503	9.96503
7272	10.4924	76.0392	0	10.0393	4.23075	0	10.413	9.96612	10.036	9.96612	9.96612	9.96612	9.96612
7273	10.9857	143.302	0	10.2553	23.1328	0	11.1158	9.97649	10.369	9.97649	9.97649	9.97649	9.97649
7274	11.4792	208.269	0	10.5533	54.5571	0	11.9436	10.0026	10.9447	10.0026	10.0026	10.0026	10.0026
7275	11.9728	271.596	0	10.894	91.6246	0	12.842	10.0428	11.6373	10.0428	10.0428	10.0428	10.0428
7276	12.4666	333.666	0	11.261	131.372	0	13.7877	10.0938	12.3896	10.0938	10.0938	10.0938	10.0938
7277	12.9605	394.709	0	11.6462	172.728	0	14.7679	10.1536	13.1796	10.1536	10.1536	10.1536	10.1536
7278	13.4545	454.869	0	12.045	215.141	0	15.7746	10.2206	13.996	10.2206	10.2206	10.2206	10.2206
8750	16.0143	500	0	25.1449	566.259	0	33.2694	20.789	30.8075	20.789	20.789	20.789	20.789
8751	16.0143	500	0	25.1449	566.259	0	33.2694	20.789	30.8075	20.789	20.789	20.789	20.789
8752	16.0144	500	0	25.1449	566.259	0	33.2694	20.789	30.8075	20.789	20.789	20.789	20.789
8753	16.0144	500	0	25.1449	566.259	0	33.2694	20.789	30.8075	20.789	20.789	20.789	20.789
8754	16.0145	500	0	25.1449	566.259	0	33.2694	20.789	30.8075	20.789	20.789	20.789	20.789
8755	16.0145	500	0	25.1449	566.259	0	33.2694	20.789	30.8075	20.789	20.789	20.789	20.789
8756	16.0145	500	0	25.1449	566.259	0	33.2694	20.789	30.8075	20.789	20.789	20.789	20.789
8757	16.0146	500	0	25.1449	566.259	0	33.2694	20.789	30.8075	20.789	20.789	20.789	20.789
8758	16.0146	500	0	25.1449	566.259	0	33.2694	20.789	30.8075	20.789	20.789	20.789	20.789
8759	16.0147	500	0	25.1449	566.259	0	33.2694	20.789	30.8075	20.789	20.789	20.789	20.789
8760	16.0147	500	0	25.1449	566.259	0	33.2694	20.789	30.8075	20.789	20.789	20.789	20.789
